* Measurement data measured by REW V5.40 beta 105
* Source: Microphone (USB Multi-Channel Audio Device), MICROPHONE (Master Volume), L, volume: 0.490
* Format: 256k Log Swept Sine, 1 sweep at -6.0 dBFS with no timing reference
* Dated: Nov 19, 2025 9:07:53 PM
* REW Settings:
*  C-weighting compensation: Off
*  Target level: 75.0 dB
* Note: ; 
* Measurement: Kunten L
* Smoothing: 1/24 octave
* Frequency Step: 96 ppo
* Start Frequency: 20.0 Hz
*
* Freq(Hz) SPL(dB) Phase(degrees)
19.995176 92.237 38.4610
20.140070 92.246 37.9959
20.286013 92.255 37.5324
20.433014 92.263 37.0702
20.581080 92.271 36.6094
20.730219 92.278 36.1500
20.880438 92.285 35.6918
21.031747 92.292 35.2349
21.184151 92.299 34.7792
21.337660 92.305 34.3248
21.492282 92.310 33.8716
21.648024 92.316 33.4197
21.804894 92.321 32.9689
21.962902 92.326 32.5194
22.122054 92.331 32.0712
22.282359 92.335 31.6242
22.443827 92.339 31.1786
22.606464 92.343 30.7343
22.770280 92.346 30.2913
22.935282 92.349 29.8497
23.101481 92.351 29.4095
23.268884 92.353 28.9708
23.437500 92.355 28.5335
23.607337 92.356 28.0977
23.778406 92.357 27.6634
23.950714 92.357 27.2305
24.124271 92.358 26.7992
24.299085 92.358 26.3693
24.475166 92.358 25.9408
24.652524 92.357 25.5139
24.831166 92.357 25.0884
25.011103 92.355 24.6643
25.192344 92.354 24.2417
25.374898 92.352 23.8206
25.558775 92.349 23.4009
25.743984 92.347 22.9828
25.930536 92.344 22.5660
26.118439 92.341 22.1508
26.307704 92.338 21.7369
26.498340 92.335 21.3246
26.690358 92.331 20.9137
26.883768 92.327 20.5043
27.078578 92.323 20.0963
27.274801 92.318 19.6896
27.472445 92.312 19.2844
27.671522 92.306 18.8806
27.872041 92.300 18.4781
28.074014 92.294 18.0771
28.277450 92.287 17.6775
28.482360 92.280 17.2793
28.688755 92.273 16.8826
28.896645 92.265 16.4874
29.106042 92.257 16.0940
29.316956 92.249 15.7023
29.529399 92.240 15.3124
29.743381 92.231 14.9246
29.958914 92.222 14.5389
30.176009 92.212 14.1555
30.394677 92.202 13.7744
30.614929 92.192 13.3959
30.836777 92.181 13.0198
31.060233 92.170 12.6464
31.285309 92.159 12.2755
31.512015 92.148 11.9071
31.740364 92.136 11.5411
31.970368 92.125 11.1775
32.202038 92.113 10.8160
32.435387 92.102 10.4565
32.670428 92.090 10.0990
32.907171 92.078 9.7430
33.145630 92.066 9.3885
33.385817 92.054 9.0353
33.627744 92.043 8.6833
33.871425 92.031 8.3323
34.116871 92.018 7.9822
34.364096 92.006 7.6329
34.613112 91.993 7.2844
34.863933 91.980 6.9365
35.116572 91.966 6.5895
35.371041 91.953 6.2433
35.627354 91.939 5.8981
35.885524 91.924 5.5540
36.145566 91.910 5.2113
36.407491 91.895 4.8701
36.671315 91.880 4.5308
36.937051 91.864 4.1934
37.204712 91.848 3.8584
37.474312 91.831 3.5256
37.745867 91.815 3.1954
38.019389 91.798 2.8676
38.294893 91.781 2.5422
38.572393 91.764 2.2192
38.851905 91.747 1.8983
39.133442 91.729 1.5796
39.417019 91.712 1.2628
39.702651 91.694 0.9479
39.990353 91.676 0.6349
40.280139 91.657 0.3239
40.572026 91.638 0.0151
40.866027 91.619 -0.2915
41.162159 91.600 -0.5956
41.460437 91.580 -0.8970
41.760877 91.561 -1.1957
42.063493 91.542 -1.4917
42.368303 91.522 -1.7853
42.675321 91.503 -2.0767
42.984564 91.484 -2.3666
43.296048 91.465 -2.6558
43.609789 91.447 -2.9451
43.925803 91.428 -3.2354
44.244108 91.409 -3.5273
44.564719 91.390 -3.8214
44.887653 91.371 -4.1175
45.212928 91.351 -4.4154
45.540559 91.331 -4.7141
45.870565 91.309 -5.0123
46.202962 91.287 -5.3087
46.537767 91.263 -5.6018
46.874999 91.240 -5.8903
47.214675 91.215 -6.1735
47.556812 91.190 -6.4509
47.901428 91.165 -6.7229
48.248542 91.140 -6.9899
48.598170 91.114 -7.2529
48.950333 91.089 -7.5128
49.305047 91.064 -7.7704
49.662332 91.039 -8.0264
50.022206 91.014 -8.2812
50.384687 90.989 -8.5352
50.749795 90.964 -8.7882
51.117549 90.939 -9.0404
51.487968 90.914 -9.2915
51.861071 90.888 -9.5416
52.236878 90.863 -9.7903
52.615408 90.838 -10.0377
52.996681 90.813 -10.2834
53.380716 90.788 -10.5273
53.767535 90.762 -10.7693
54.157157 90.737 -11.0090
54.549602 90.711 -11.2463
54.944891 90.684 -11.4814
55.343044 90.657 -11.7142
55.744083 90.631 -11.9453
56.148027 90.604 -12.1749
56.554899 90.579 -12.4031
56.964719 90.553 -12.6299
57.377509 90.528 -12.8552
57.793290 90.502 -13.0786
58.212084 90.475 -13.2997
58.633913 90.448 -13.5183
59.058798 90.421 -13.7347
59.486763 90.393 -13.9492
59.917828 90.365 -14.1625
60.352018 90.337 -14.3755
60.789353 90.308 -14.5884
61.229858 90.277 -14.8009
61.673555 90.246 -15.0120
62.120467 90.213 -15.2201
62.570617 90.180 -15.4235
63.024030 90.148 -15.6211
63.480728 90.117 -15.8125
63.940735 90.088 -15.9984
64.404076 90.060 -16.1803
64.870775 90.032 -16.3602
65.340855 90.002 -16.5396
65.814342 89.972 -16.7196
66.291260 89.941 -16.9003
66.771634 89.909 -17.0814
67.255488 89.878 -17.2622
67.742849 89.848 -17.4421
68.233742 89.817 -17.6209
68.728192 89.787 -17.7983
69.226225 89.757 -17.9743
69.727866 89.727 -18.1489
70.233143 89.696 -18.3218
70.742082 89.666 -18.4926
71.254708 89.636 -18.6609
71.771049 89.607 -18.8260
72.291131 89.577 -18.9876
72.814983 89.547 -19.1453
73.342630 89.516 -19.2992
73.874101 89.484 -19.4498
74.409423 89.452 -19.5981
74.948625 89.420 -19.7452
75.491733 89.388 -19.8922
76.038777 89.356 -20.0392
76.589786 89.324 -20.1860
77.144787 89.290 -20.3317
77.703810 89.257 -20.4750
78.266884 89.222 -20.6153
78.834038 89.187 -20.7521
79.405302 89.153 -20.8853
79.980705 89.119 -21.0150
80.560278 89.085 -21.1414
81.144051 89.052 -21.2642
81.732055 89.020 -21.3837
82.324319 88.988 -21.5002
82.920875 88.955 -21.6144
83.521754 88.922 -21.7272
84.126987 88.889 -21.8396
84.736605 88.856 -21.9520
85.350642 88.823 -22.0646
85.969128 88.789 -22.1771
86.592096 88.755 -22.2888
87.219578 88.721 -22.3989
87.851607 88.687 -22.5063
88.488216 88.654 -22.6101
89.129438 88.620 -22.7098
89.775306 88.586 -22.8053
90.425855 88.550 -22.8976
91.081118 88.515 -22.9877
91.741129 88.479 -23.0763
92.405924 88.443 -23.1634
93.075535 88.407 -23.2485
93.749999 88.372 -23.3311
94.429350 88.336 -23.4108
95.113624 88.300 -23.4874
95.802856 88.262 -23.5604
96.497083 88.224 -23.6293
97.196341 88.185 -23.6937
97.900666 88.146 -23.7535
98.610094 88.108 -23.8094
99.324664 88.069 -23.8617
100.044411 88.030 -23.9102
100.769374 87.991 -23.9537
101.499591 87.952 -23.9904
102.235098 87.912 -24.0179
102.975936 87.872 -24.0347
103.722142 87.831 -24.0397
104.473756 87.790 -24.0331
105.230815 87.749 -24.0150
105.993361 87.709 -23.9851
106.761433 87.668 -23.9421
107.535070 87.628 -23.8849
108.314314 87.590 -23.8123
109.099204 87.554 -23.7246
109.889782 87.521 -23.6242
110.686088 87.492 -23.5156
111.488165 87.467 -23.4050
112.296055 87.446 -23.2985
113.109798 87.428 -23.2015
113.929438 87.413 -23.1179
114.755018 87.400 -23.0502
115.586580 87.389 -23.0005
116.424168 87.378 -22.9712
117.267826 87.368 -22.9641
118.117597 87.358 -22.9799
118.973525 87.347 -23.0164
119.835657 87.335 -23.0694
120.704035 87.320 -23.1334
121.578706 87.303 -23.2036
122.459716 87.284 -23.2766
123.347109 87.263 -23.3511
124.240933 87.240 -23.4263
125.141234 87.216 -23.5018
126.048059 87.190 -23.5763
126.961456 87.163 -23.6484
127.881471 87.135 -23.7166
128.808153 87.106 -23.7797
129.741550 87.076 -23.8364
130.681710 87.045 -23.8860
131.628684 87.014 -23.9282
132.582520 86.983 -23.9637
133.543267 86.952 -23.9942
134.510977 86.921 -24.0211
135.485699 86.890 -24.0450
136.467484 86.858 -24.0652
137.456384 86.827 -24.0803
138.452449 86.796 -24.0898
139.455733 86.765 -24.0939
140.466286 86.734 -24.0926
141.484163 86.703 -24.0862
142.509416 86.673 -24.0745
143.542098 86.643 -24.0581
144.582263 86.614 -24.0378
145.629965 86.585 -24.0150
146.685260 86.555 -23.9902
147.748202 86.526 -23.9637
148.818846 86.497 -23.9357
149.897249 86.469 -23.9069
150.983466 86.440 -23.8779
152.077555 86.411 -23.8481
153.179572 86.382 -23.8157
154.289574 86.352 -23.7786
155.407620 86.324 -23.7366
156.533767 86.296 -23.6909
157.668076 86.269 -23.6427
158.810603 86.243 -23.5923
159.961411 86.220 -23.5403
161.120557 86.199 -23.4873
162.288103 86.181 -23.4340
163.464109 86.166 -23.3809
164.648638 86.155 -23.3280
165.841750 86.147 -23.2748
167.043507 86.142 -23.2206
168.253973 86.136 -23.1661
169.473211 86.127 -23.1132
170.701284 86.111 -23.0632
171.938256 86.086 -23.0167
173.184191 86.053 -22.9720
174.439155 86.012 -22.9266
175.703213 85.961 -22.8790
176.976431 85.903 -22.8295
178.258875 85.842 -22.7796
179.550613 85.782 -22.7318
180.851710 85.727 -22.6879
182.162236 85.676 -22.6464
183.482259 85.630 -22.6013
184.811847 85.590 -22.5466
186.151070 85.556 -22.4811
187.499997 85.528 -22.4087
188.858700 85.504 -22.3334
190.227248 85.482 -22.2574
191.605713 85.461 -22.1804
192.994167 85.440 -22.1014
194.392682 85.420 -22.0196
195.801331 85.401 -21.9349
197.220189 85.382 -21.8479
198.649327 85.363 -21.7585
200.088822 85.343 -21.6660
201.538748 85.323 -21.5696
202.999181 85.302 -21.4686
204.470197 85.280 -21.3636
205.951872 85.259 -21.2562
207.444284 85.236 -21.1476
208.947511 85.214 -21.0378
210.461631 85.191 -20.9254
211.986723 85.167 -20.8087
213.522866 85.144 -20.6871
215.070141 85.120 -20.5611
216.628627 85.096 -20.4307
218.198408 85.073 -20.2961
219.779563 85.050 -20.1591
221.372177 85.027 -20.0211
222.976331 85.004 -19.8813
224.592109 84.982 -19.7358
226.219596 84.961 -19.5798
227.858877 84.944 -19.4149
229.510036 84.931 -19.2581
231.173160 84.921 -19.1299
232.848336 84.911 -19.0344
234.535651 84.899 -18.9606
236.235193 84.885 -18.8967
237.947051 84.869 -18.8365
239.671313 84.851 -18.7776
241.408071 84.830 -18.7167
243.157413 84.808 -18.6505
244.919432 84.784 -18.5764
246.694219 84.760 -18.4941
248.481867 84.735 -18.4045
250.282469 84.711 -18.3091
252.096119 84.687 -18.2100
253.922911 84.663 -18.1086
255.762941 84.638 -18.0038
257.616305 84.614 -17.8940
259.483099 84.590 -17.7783
261.363421 84.566 -17.6578
263.257368 84.543 -17.5336
265.165039 84.520 -17.4070
267.086534 84.497 -17.2804
269.021953 84.475 -17.1549
270.971397 84.452 -17.0286
272.934968 84.430 -16.8989
274.912767 84.408 -16.7663
276.904898 84.387 -16.6317
278.911465 84.365 -16.4941
280.932573 84.344 -16.3522
282.968326 84.322 -16.2054
285.018831 84.301 -16.0547
287.084195 84.280 -15.9022
289.164526 84.259 -15.7511
291.259931 84.239 -15.6019
293.370520 84.218 -15.4523
295.496404 84.197 -15.3006
297.637693 84.177 -15.1487
299.794498 84.157 -14.9988
301.966933 84.137 -14.8495
304.155110 84.116 -14.6972
306.359143 84.096 -14.5399
308.579148 84.077 -14.3792
310.815239 84.058 -14.2177
313.067535 84.041 -14.0568
315.336151 84.023 -13.8962
317.621207 84.005 -13.7352
319.922821 83.986 -13.5729
322.241114 83.968 -13.4097
324.576206 83.950 -13.2467
326.928219 83.933 -13.0831
329.297275 83.915 -12.9171
331.683499 83.897 -12.7482
334.087014 83.880 -12.5771
336.507947 83.863 -12.4045
338.946422 83.846 -12.2289
341.402567 83.829 -12.0493
343.876511 83.813 -11.8680
346.368382 83.797 -11.6888
348.878310 83.781 -11.5142
351.406426 83.766 -11.3433
353.952862 83.751 -11.1736
356.517750 83.735 -11.0012
359.101225 83.721 -10.8243
361.703421 83.706 -10.6448
364.324473 83.693 -10.4646
366.964518 83.680 -10.2849
369.623694 83.666 -10.1066
372.302140 83.652 -9.9280
374.999995 83.638 -9.7456
377.717399 83.624 -9.5580
380.454495 83.610 -9.3672
383.211425 83.596 -9.1765
385.988333 83.583 -8.9875
388.785364 83.570 -8.7993
391.602663 83.557 -8.6092
394.440377 83.544 -8.4176
397.298655 83.532 -8.2284
400.177644 83.519 -8.0423
403.077497 83.506 -7.8540
405.998362 83.493 -7.6588
408.940394 83.480 -7.4578
411.903744 83.467 -7.2529
414.888569 83.456 -7.0462
417.895022 83.445 -6.8423
420.923262 83.434 -6.6427
423.973445 83.423 -6.4445
427.045732 83.413 -6.2456
430.140281 83.401 -6.0455
433.257255 83.391 -5.8424
436.396816 83.380 -5.6357
439.559127 83.371 -5.4283
442.744354 83.362 -5.2219
445.952662 83.353 -5.0153
449.184218 83.344 -4.8058
452.439192 83.335 -4.5932
455.717753 83.326 -4.3790
459.020072 83.316 -4.1647
462.346321 83.307 -3.9517
465.696673 83.298 -3.7397
469.071303 83.289 -3.5262
472.470387 83.280 -3.3083
475.894102 83.272 -3.0864
479.342627 83.264 -2.8635
482.816141 83.256 -2.6410
486.314826 83.249 -2.4176
489.838864 83.242 -2.1929
493.388438 83.235 -1.9689
496.963734 83.228 -1.7471
500.564938 83.222 -1.5257
504.192238 83.215 -1.3010
507.845823 83.208 -1.0708
511.525883 83.201 -0.8354
515.232610 83.195 -0.5970
518.966198 83.190 -0.3578
522.726841 83.184 -0.1179
526.514735 83.179 0.1227
530.330078 83.173 0.3628
534.173068 83.168 0.6022
538.043907 83.162 0.8428
541.942795 83.157 1.0862
545.869936 83.153 1.3315
549.825534 83.150 1.5753
553.809797 83.146 1.8168
557.822931 83.142 2.0598
561.865146 83.138 2.3083
565.936652 83.135 2.5602
570.037662 83.132 2.8108
574.168390 83.130 3.0593
578.329051 83.127 3.3098
582.519862 83.125 3.5659
586.741041 83.124 3.8270
590.992808 83.122 4.0913
595.275386 83.121 4.3579
599.588997 83.120 4.6266
603.933866 83.119 4.8943
608.310219 83.120 5.1584
612.718286 83.121 5.4202
617.158295 83.122 5.6834
621.630479 83.122 5.9528
626.135069 83.123 6.2313
630.672302 83.124 6.5173
635.242414 83.125 6.8066
639.845642 83.127 7.0956
644.482227 83.129 7.3827
649.152411 83.131 7.6688
653.856437 83.134 7.9553
658.594551 83.136 8.2427
663.366998 83.138 8.5315
668.174029 83.141 8.8224
673.015893 83.144 9.1165
677.892844 83.149 9.4142
682.805135 83.153 9.7186
687.753022 83.158 10.0344
692.736764 83.163 10.3621
697.756620 83.169 10.6994
702.812853 83.177 11.0457
707.905724 83.187 11.3977
713.035501 83.199 11.7466
718.202450 83.214 12.0822
723.406841 83.230 12.3990
728.648945 83.246 12.7004
733.929036 83.261 12.9969
739.247388 83.274 13.2958
744.604279 83.288 13.5983
749.999989 83.301 13.9040
755.434798 83.315 14.2148
760.908990 83.328 14.5314
766.422850 83.342 14.8538
771.976666 83.357 15.1823
777.570727 83.372 15.5144
783.205325 83.388 15.8478
788.880754 83.406 16.1799
794.597309 83.426 16.5105
800.355289 83.446 16.8420
806.154993 83.467 17.1757
811.996725 83.488 17.5105
817.880788 83.511 17.8457
823.807489 83.534 18.1821
829.777138 83.559 18.5209
835.790045 83.584 18.8621
841.846524 83.609 19.2053
847.946891 83.636 19.5496
854.091464 83.663 19.8926
860.280562 83.691 20.2321
866.514510 83.720 20.5690
872.793631 83.750 20.9061
879.118254 83.781 21.2441
885.488707 83.814 21.5808
891.905323 83.848 21.9138
898.368437 83.883 22.2431
904.878385 83.919 22.5691
911.435507 83.956 22.8915
918.040144 83.994 23.2107
924.692641 84.033 23.5270
931.393345 84.073 23.8387
938.142606 84.115 24.1434
944.940774 84.158 24.4402
951.788204 84.202 24.7323
958.685254 84.247 25.0226
965.632282 84.292 25.3105
972.629652 84.338 25.5948
979.677727 84.385 25.8730
986.776876 84.434 26.1399
993.927468 84.484 26.3931
1001.129876 84.534 26.6343
1008.384476 84.584 26.8689
1015.691645 84.634 27.1008
1023.051766 84.685 27.3299
1030.465221 84.738 27.5542
1037.932396 84.791 27.7708
1045.453682 84.846 27.9769
1053.029471 84.900 28.1711
1060.660156 84.955 28.3524
1068.346137 85.012 28.5225
1076.087813 85.069 28.6844
1083.885589 85.128 28.8410
1091.739871 85.187 28.9929
1099.651068 85.247 29.1374
1107.619593 85.306 29.2725
1115.645861 85.365 29.3974
1123.730291 85.423 29.5123
1131.873304 85.481 29.6178
1140.075325 85.539 29.7149
1148.336780 85.597 29.8054
1156.658102 85.656 29.8883
1165.039724 85.715 29.9619
1173.482082 85.774 30.0277
1181.985617 85.832 30.0873
1190.550772 85.890 30.1416
1199.177993 85.948 30.1910
1207.867731 86.005 30.2351
1216.620439 86.061 30.2741
1225.436572 86.118 30.3087
1234.316591 86.174 30.3382
1243.260957 86.230 30.3607
1252.270139 86.285 30.3764
1261.344604 86.340 30.3864
1270.484827 86.396 30.3916
1279.691284 86.455 30.3933
1288.964455 86.517 30.3914
1298.304823 86.581 30.3848
1307.712874 86.646 30.3746
1317.189101 86.712 30.3627
1326.733996 86.777 30.3503
1336.348058 86.842 30.3368
1346.031787 86.906 30.3194
1355.785688 86.968 30.2957
1365.610270 87.029 30.2656
1375.506045 87.088 30.2318
1385.473529 87.147 30.1984
1395.513241 87.204 30.1658
1405.625705 87.262 30.1325
1415.811448 87.318 30.0980
1426.071002 87.373 30.0613
1436.404900 87.427 30.0212
1446.813682 87.481 29.9780
1457.297890 87.535 29.9319
1467.858072 87.589 29.8833
1478.494776 87.642 29.8332
1489.208559 87.695 29.7819
1499.999978 87.748 29.7282
1510.869596 87.800 29.6712
1521.817980 87.852 29.6106
1532.845701 87.903 29.5462
1543.953332 87.954 29.4789
1555.141455 88.003 29.4094
1566.410651 88.052 29.3386
1577.761508 88.101 29.2661
1589.194618 88.150 29.1895
1600.710578 88.200 29.1062
1612.309986 88.248 29.0161
1623.993449 88.297 28.9207
1635.761575 88.345 28.8218
1647.614978 88.392 28.7210
1659.554275 88.441 28.6185
1671.580089 88.489 28.5115
1683.693048 88.538 28.3965
1695.893782 88.586 28.2729
1708.182927 88.634 28.1413
1720.561125 88.682 28.0045
1733.029020 88.729 27.8659
1745.587263 88.776 27.7257
1758.236508 88.821 27.5809
1770.977414 88.867 27.4281
1783.810646 88.912 27.2655
1796.736874 88.957 27.0941
1809.756770 89.003 26.9161
1822.871013 89.050 26.7328
1836.080288 89.097 26.5431
1849.385283 89.144 26.3447
1862.786691 89.191 26.1366
1876.285211 89.238 25.9205
1889.881547 89.284 25.6989
1903.576408 89.332 25.4730
1917.370507 89.379 25.2405
1931.264564 89.427 24.9979
1945.259304 89.475 24.7446
1959.355454 89.522 24.4805
1973.553752 89.570 24.2059
1987.854936 89.617 23.9215
2002.259752 89.664 23.6278
2016.768952 89.709 23.3257
2031.383291 89.753 23.0175
2046.103531 89.796 22.7039
2060.930441 89.839 22.3824
2075.864793 89.880 22.0504
2090.907365 89.921 21.7074
2106.058941 89.962 21.3535
2121.320313 90.002 20.9905
2136.692274 90.041 20.6206
2152.175627 90.078 20.2444
2167.771179 90.115 19.8611
2183.479742 90.150 19.4690
2199.302137 90.184 19.0673
2215.239187 90.216 18.6571
2231.291723 90.247 18.2400
2247.460582 90.277 17.8156
2263.746608 90.304 17.3832
2280.150649 90.329 16.9434
2296.673561 90.352 16.4985
2313.316204 90.373 16.0521
2330.079447 90.394 15.6058
2346.964163 90.413 15.1579
2363.971233 90.431 14.7062
2381.101543 90.447 14.2498
2398.355986 90.461 13.7893
2415.735463 90.473 13.3241
2433.240878 90.484 12.8543
2450.873144 90.492 12.3826
2468.633181 90.498 11.9120
2486.521915 90.501 11.4448
2504.540278 90.501 10.9827
2522.689209 90.499 10.5289
2540.969655 90.495 10.0844
2559.382568 90.489 9.6469
2577.928909 90.481 9.2169
2596.609645 90.473 8.7996
2615.425749 90.463 8.4012
2634.378202 90.453 8.0251
2653.467992 90.444 7.6703
2672.696115 90.435 7.3317
2692.063573 90.430 7.0013
2711.571376 90.427 6.6714
2731.220539 90.427 6.3337
2751.012089 90.430 5.9797
2770.947057 90.434 5.6025
2791.026482 90.438 5.1984
2811.251410 90.440 4.7677
2831.622897 90.440 4.3138
2852.142003 90.436 3.8425
2872.809800 90.427 3.3616
2893.627364 90.415 2.8792
2914.595781 90.398 2.4037
2935.716143 90.377 1.9404
2956.989553 90.353 1.4910
2978.417118 90.327 1.0549
2999.999956 90.298 0.6307
3021.739192 90.268 0.2177
3043.635960 90.237 -0.1836
3065.691401 90.204 -0.5732
3087.906665 90.170 -0.9519
3110.282909 90.135 -1.3220
3132.821301 90.099 -1.6901
3155.523016 90.063 -2.0627
3178.389237 90.025 -2.4408
3201.421155 89.985 -2.8204
3224.619973 89.944 -3.1984
3247.986898 89.902 -3.5731
3271.523150 89.861 -3.9436
3295.229956 89.821 -4.3097
3319.108550 89.783 -4.6701
3343.160179 89.750 -5.0217
3367.386096 89.721 -5.3604
3391.787563 89.697 -5.6831
3416.365854 89.677 -5.9894
3441.122250 89.661 -6.2814
3466.058040 89.650 -6.5614
3491.174525 89.643 -6.8306
3516.473015 89.640 -7.0916
3541.954828 89.639 -7.3492
3567.621293 89.640 -7.6095
3593.473747 89.641 -7.8801
3619.513539 89.643 -8.1711
3645.742027 89.644 -8.4952
3672.160576 89.643 -8.8660
3698.770566 89.638 -9.2938
3725.573382 89.627 -9.7814
3752.570422 89.609 -10.3245
3779.763094 89.582 -10.9136
3807.152816 89.544 -11.5359
3834.741015 89.497 -12.1783
3862.529129 89.441 -12.8313
3890.518607 89.379 -13.4912
3918.710909 89.309 -14.1561
3947.107503 89.233 -14.8231
3975.709871 89.151 -15.4895
4004.519504 89.060 -16.1523
4033.537903 88.963 -16.8102
4062.766581 88.857 -17.4659
4092.207063 88.745 -18.1230
4121.860882 88.623 -18.7791
4151.729585 88.493 -19.4255
4181.814729 88.350 -20.0500
4212.117883 88.196 -20.6357
4242.640625 88.029 -21.1639
4273.384548 87.851 -21.6145
4304.351254 87.663 -21.9675
4335.542358 87.471 -22.2051
4366.959485 87.278 -22.3175
4398.604273 87.088 -22.3059
4430.478373 86.905 -22.1841
4462.583446 86.732 -21.9756
4494.921165 86.570 -21.7062
4527.493217 86.420 -21.4011
4560.301299 86.280 -21.0804
4593.347122 86.149 -20.7567
4626.632409 86.025 -20.4359
4660.158894 85.905 -20.1202
4693.928327 85.789 -19.8055
4727.942466 85.676 -19.4838
4762.203086 85.564 -19.1491
4796.711973 85.455 -18.8014
4831.470925 85.347 -18.4427
4866.481755 85.242 -18.0749
4901.746288 85.138 -17.6981
4937.266362 85.036 -17.3132
4973.043830 84.935 -16.9215
5009.080555 84.835 -16.5209
5045.378418 84.735 -16.1088
5081.939310 84.636 -15.6835
5118.765137 84.540 -15.2401
5155.857819 84.445 -14.7692
5193.219290 84.354 -14.2649
5230.851498 84.266 -13.7270
5268.756404 84.181 -13.1578
5306.935985 84.100 -12.5612
5345.392231 84.025 -11.9397
5384.127146 83.953 -11.2924
5423.142751 83.884 -10.6157
5462.441079 83.815 -9.9060
5502.024179 83.745 -9.1626
5541.894114 83.673 -8.3854
5582.052963 83.599 -7.5748
5622.502820 83.522 -6.7322
5663.245793 83.440 -5.8579
5704.284007 83.358 -4.9489
5745.619600 83.275 -4.0035
5787.254728 83.194 -3.0270
5829.191562 83.113 -2.0229
5871.432287 83.034 -0.9888
5913.979105 82.958 0.0742
5956.834236 82.886 1.1614
5999.999912 82.820 2.2722
6043.478385 82.758 3.4083
6087.271921 82.700 4.5713
6131.382802 82.649 5.7604
6175.813330 82.605 6.9696
6220.565819 82.568 8.1951
6265.642603 82.540 9.4368
6311.046032 82.519 10.6954
6356.778473 82.505 11.9720
6402.842310 82.499 13.2699
6449.239945 82.501 14.5894
6495.973796 82.510 15.9260
6543.046300 82.527 17.2791
6590.459911 82.553 18.6510
6638.217100 82.591 20.0419
6686.320358 82.642 21.4475
6734.772191 82.706 22.8654
6783.575127 82.784 24.2951
6832.731709 82.879 25.7301
6882.244499 82.991 27.1609
6932.116080 83.124 28.5781
6982.349051 83.279 29.9692
7032.946030 83.458 31.3145
7083.909656 83.662 32.5934
7135.242586 83.893 33.7851
7186.947495 84.152 34.8603
7239.027079 84.439 35.7822
7291.484053 84.754 36.5147
7344.321152 85.094 37.0212
7397.541131 85.455 37.2680
7451.146763 85.832 37.2294
7505.140844 86.221 36.8852
7559.526189 86.613 36.2282
7614.305632 87.001 35.2692
7669.482029 87.376 34.0235
7725.058258 87.732 32.5017
7781.037214 88.063 30.7181
7837.421817 88.363 28.6910
7894.215007 88.625 26.4417
7951.419743 88.839 23.9926
8009.039008 88.996 21.3665
8067.075806 89.092 18.5907
8125.533163 89.124 15.7032
8184.414126 89.093 12.7545
8243.721764 88.999 9.8052
8303.459170 88.842 6.9207
8363.629458 88.624 4.1644
8424.235765 88.353 1.5949
8485.281250 88.035 -0.7367
8546.769096 87.680 -2.7891
8608.702508 87.296 -4.5297
8671.084715 86.893 -5.9448
8733.918969 86.480 -7.0536
8797.208547 86.062 -7.8766
8860.956746 85.641 -8.4171
8925.166891 85.223 -8.6759
8989.842330 84.811 -8.6641
9054.986433 84.410 -8.4049
9120.602598 84.026 -7.9294
9186.694244 83.661 -7.2637
9253.264817 83.314 -6.4271
9320.317788 82.989 -5.4357
9387.856653 82.687 -4.3042
9455.884932 82.410 -3.0456
9524.406173 82.161 -1.6754
9593.423946 81.940 -0.2139
9662.941850 81.746 1.3228
9732.963510 81.580 2.9263
9803.492576 81.439 4.5873
9874.532725 81.323 6.2969
9946.087659 81.233 8.0469
10018.161110 81.169 9.8257
10090.756835 81.133 11.6229
10163.878619 81.127 13.4310
10237.530273 81.152 15.2419
10311.715638 81.211 17.0388
10386.438580 81.305 18.8009
10461.702996 81.437 20.5055
10537.512808 81.609 22.1243
10613.871970 81.823 23.6220
10690.784461 82.081 24.9557
10768.254293 82.385 26.0773
10846.285502 82.733 26.9349
10924.882158 83.124 27.4650
11004.048358 83.556 27.5893
11083.788228 84.024 27.2183
11164.105927 84.518 26.2560
11245.005640 85.023 24.6053
11326.491587 85.517 22.1792
11408.568014 85.970 18.9252
11491.239200 86.346 14.8535
11574.509457 86.609 10.0558
11658.383123 86.727 4.7159
11742.864573 86.678 -0.9003
11827.958211 86.454 -6.4807
11913.668472 86.066 -11.7193
11999.999825 85.535 -16.3633
12086.956770 84.894 -20.2427
12174.543841 84.180 -23.2797
12262.765605 83.425 -25.4795
12351.626659 82.658 -26.9036
12441.131638 81.902 -27.6449
12531.285206 81.169 -27.8102
12622.092064 80.471 -27.5052
12713.556946 79.812 -26.8278
12805.684621 79.193 -25.8711
12898.479890 78.616 -24.7274
12991.947593 78.076 -23.4851
13086.092601 77.568 -22.2098
13180.919822 77.079 -20.9232
13276.434201 76.602 -19.6113
13372.640716 76.138 -18.2762
13469.544383 75.702 -16.9586
13567.150254 75.307 -15.7125
13665.463417 74.971 -14.5933
13764.488998 74.723 -13.6512
13864.232160 74.620 -12.9282
13964.698101 74.745 -12.4461
14065.892060 75.145 -12.2087
14167.819312 75.746 -12.2042
14270.485171 76.392 -12.3929
14373.894990 76.934 -12.7100
14478.054158 77.253 -13.0759
14582.968107 77.290 -13.4031
14688.642305 77.071 -13.5890
14795.082262 76.675 -13.5243
14902.293527 76.182 -13.1233
15010.281689 75.646 -12.3555
15119.052378 75.108 -11.2542
15228.611264 74.602 -9.8986
15338.964058 74.164 -8.3915
15450.116515 73.831 -6.8622
15562.074428 73.629 -5.4614
15674.843635 73.555 -4.3177
15788.430013 73.580 -3.4847
15902.839485 73.685 -2.9648
16018.078016 73.865 -2.7655
16134.151612 74.104 -2.8917
16251.066326 74.373 -3.3250
16368.828251 74.632 -4.0464
16487.443528 74.848 -5.0745
16606.918341 75.004 -6.4639
16727.258917 75.101 -8.2870
16848.471530 75.145 -10.6141
16970.562500 75.131 -13.4966
17093.538192 75.041 -16.9406
17217.405016 74.845 -20.8912
17342.169430 74.511 -25.1974
17467.837939 74.019 -29.6106
17594.417093 73.359 -33.8286
17721.913492 72.540 -37.5548
17850.333783 71.581 -40.5582
17979.684660 70.510 -42.6884
18109.972866 69.357 -43.8704
18241.205195 68.147 -44.0988
18373.388487 66.894 -43.4135
18506.529634 65.605 -41.7951
18640.635577 64.288 -39.0890
18775.713306 62.965 -35.0536
18911.769865 61.694 -29.4800
19048.812345 60.556 -22.5948
19186.847892 59.592 -15.1719
19325.883701 58.770 -7.7375
19465.927021 58.032 -0.3659
19606.985152 57.343 7.0642
19749.065449 56.708 14.6077
19892.175318 56.193 21.6715
20036.322221 55.902 26.4877
