* Measurement data measured by REW V5.40 beta 105
* Source: Microphone (USB Multi-Channel Audio Device), MICROPHONE (Master Volume), L, volume: 0.490
* Format: 256k Log Swept Sine, 1 sweep at -6.0 dBFS with no timing reference
* Dated: Nov 19, 2025 9:10:38 PM
* REW Settings:
*  C-weighting compensation: Off
*  Target level: 75.0 dB
* Note: ; 
* Measurement: Kunten Deep Insert
* Smoothing: 1/24 octave
* Frequency Step: 96 ppo
* Start Frequency: 20.0 Hz
*
* Freq(Hz) SPL(dB) Phase(degrees)
19.995176 92.877 50.0202
20.140070 92.896 49.5115
20.286013 92.915 49.0037
20.433014 92.933 48.4968
20.581080 92.950 47.9910
20.730219 92.967 47.4861
20.880438 92.983 46.9824
21.031747 92.998 46.4797
21.184151 93.014 45.9781
21.337660 93.028 45.4777
21.492282 93.043 44.9785
21.648024 93.057 44.4804
21.804894 93.070 43.9836
21.962902 93.083 43.4880
22.122054 93.096 42.9936
22.282359 93.108 42.5005
22.443827 93.120 42.0087
22.606464 93.132 41.5181
22.770280 93.143 41.0289
22.935282 93.153 40.5409
23.101481 93.163 40.0542
23.268884 93.173 39.5687
23.437500 93.182 39.0846
23.607337 93.190 38.6017
23.778406 93.199 38.1201
23.950714 93.206 37.6397
24.124271 93.214 37.1606
24.299085 93.221 36.6828
24.475166 93.228 36.2062
24.652524 93.234 35.7308
24.831166 93.240 35.2567
25.011103 93.246 34.7839
25.192344 93.251 34.3123
25.374898 93.255 33.8419
25.558775 93.259 33.3728
25.743984 93.263 32.9050
25.930536 93.267 32.4385
26.118439 93.270 31.9734
26.307704 93.273 31.5097
26.498340 93.275 31.0475
26.690358 93.278 30.5868
26.883768 93.279 30.1277
27.078578 93.280 29.6702
27.274801 93.281 29.2144
27.472445 93.281 28.7603
27.671522 93.281 28.3081
27.872041 93.280 27.8577
28.074014 93.279 27.4091
28.277450 93.277 26.9623
28.482360 93.276 26.5172
28.688755 93.274 26.0739
28.896645 93.272 25.6322
29.106042 93.269 25.1920
29.316956 93.267 24.7533
29.529399 93.264 24.3159
29.743381 93.261 23.8799
29.958914 93.257 23.4449
30.176009 93.253 23.0110
30.394677 93.249 22.5781
30.614929 93.245 22.1462
30.836777 93.240 21.7153
31.060233 93.235 21.2854
31.285309 93.230 20.8564
31.512015 93.224 20.4285
31.740364 93.218 20.0017
31.970368 93.212 19.5760
32.202038 93.205 19.1515
32.435387 93.198 18.7283
32.670428 93.191 18.3064
32.907171 93.183 17.8860
33.145630 93.175 17.4669
33.385817 93.166 17.0494
33.627744 93.158 16.6335
33.871425 93.148 16.2193
34.116871 93.139 15.8067
34.364096 93.129 15.3958
34.613112 93.119 14.9867
34.863933 93.108 14.5795
35.116572 93.097 14.1741
35.371041 93.085 13.7708
35.627354 93.073 13.3695
35.885524 93.061 12.9703
36.145566 93.049 12.5733
36.407491 93.036 12.1786
36.671315 93.023 11.7861
36.937051 93.009 11.3961
37.204712 92.996 11.0084
37.474312 92.982 10.6232
37.745867 92.968 10.2402
38.019389 92.953 9.8597
38.294893 92.939 9.4813
38.572393 92.925 9.1050
38.851905 92.910 8.7307
39.133442 92.895 8.3582
39.417019 92.880 7.9873
39.702651 92.865 7.6180
39.990353 92.850 7.2502
40.280139 92.834 6.8839
40.572026 92.818 6.5188
40.866027 92.801 6.1552
41.162159 92.784 5.7931
41.460437 92.768 5.4324
41.760877 92.751 5.0735
42.063493 92.733 4.7162
42.368303 92.716 4.3607
42.675321 92.698 4.0070
42.984564 92.680 3.6550
43.296048 92.662 3.3050
43.609789 92.644 2.9567
43.925803 92.625 2.6102
44.244108 92.607 2.2655
44.564719 92.588 1.9225
44.887653 92.568 1.5812
45.212928 92.549 1.2417
45.540559 92.529 0.9039
45.870565 92.509 0.5680
46.202962 92.489 0.2339
46.537767 92.468 -0.0982
46.874999 92.448 -0.4282
47.214675 92.427 -0.7560
47.556812 92.405 -1.0815
47.901428 92.383 -1.4044
48.248542 92.361 -1.7246
48.598170 92.339 -2.0423
48.950333 92.316 -2.3573
49.305047 92.293 -2.6699
49.662332 92.270 -2.9801
50.022206 92.247 -3.2883
50.384687 92.223 -3.5946
50.749795 92.200 -3.8993
51.117549 92.177 -4.2024
51.487968 92.153 -4.5039
51.861071 92.130 -4.8040
52.236878 92.106 -5.1025
52.615408 92.082 -5.3994
52.996681 92.059 -5.6945
53.380716 92.035 -5.9879
53.767535 92.011 -6.2794
54.157157 91.987 -6.5689
54.549602 91.963 -6.8564
54.944891 91.937 -7.1418
55.343044 91.911 -7.4248
55.744083 91.885 -7.7054
56.148027 91.859 -7.9831
56.554899 91.834 -8.2578
56.964719 91.809 -8.5292
57.377509 91.783 -8.7974
57.793290 91.758 -9.0621
58.212084 91.732 -9.3240
58.633913 91.706 -9.5831
59.058798 91.679 -9.8401
59.486763 91.652 -10.0951
59.917828 91.625 -10.3485
60.352018 91.598 -10.6005
60.789353 91.570 -10.8509
61.229858 91.541 -11.0997
61.673555 91.511 -11.3467
62.120467 91.480 -11.5916
62.570617 91.449 -11.8340
63.024030 91.420 -12.0740
63.480728 91.391 -12.3114
63.940735 91.365 -12.5464
64.404076 91.338 -12.7789
64.870775 91.310 -13.0093
65.340855 91.281 -13.2375
65.814342 91.251 -13.4639
66.291260 91.220 -13.6884
66.771634 91.188 -13.9108
67.255488 91.157 -14.1312
67.742849 91.127 -14.3494
68.233742 91.097 -14.5652
68.728192 91.066 -14.7783
69.226225 91.036 -14.9889
69.727866 91.006 -15.1968
70.233143 90.977 -15.4020
70.742082 90.947 -15.6046
71.254708 90.919 -15.8047
71.771049 90.890 -16.0026
72.291131 90.862 -16.1981
72.814983 90.833 -16.3915
73.342630 90.803 -16.5829
73.874101 90.773 -16.7725
74.409423 90.742 -16.9603
74.948625 90.711 -17.1464
75.491733 90.679 -17.3309
76.038777 90.647 -17.5138
76.589786 90.616 -17.6948
77.144787 90.583 -17.8737
77.703810 90.551 -18.0502
78.266884 90.517 -18.2241
78.834038 90.484 -18.3952
79.405302 90.451 -18.5636
79.980705 90.418 -18.7297
80.560278 90.387 -18.8938
81.144051 90.356 -19.0563
81.732055 90.325 -19.2173
82.324319 90.294 -19.3770
82.920875 90.263 -19.5348
83.521754 90.231 -19.6907
84.126987 90.199 -19.8444
84.736605 90.166 -19.9958
85.350642 90.133 -20.1450
85.969128 90.100 -20.2920
86.592096 90.068 -20.4369
87.219578 90.035 -20.5798
87.851607 90.003 -20.7209
88.488216 89.972 -20.8602
89.129438 89.940 -20.9974
89.775306 89.908 -21.1321
90.425855 89.874 -21.2640
91.081118 89.840 -21.3928
91.741129 89.805 -21.5184
92.405924 89.771 -21.6409
93.075535 89.737 -21.7607
93.749999 89.703 -21.8782
94.429350 89.670 -21.9934
95.113624 89.636 -22.1066
95.802856 89.601 -22.2173
96.497083 89.565 -22.3254
97.196341 89.528 -22.4307
97.900666 89.492 -22.5332
98.610094 89.456 -22.6330
99.324664 89.421 -22.7303
100.044411 89.385 -22.8256
100.769374 89.350 -22.9188
101.499591 89.315 -23.0094
102.235098 89.280 -23.0969
102.975936 89.244 -23.1805
103.722142 89.208 -23.2601
104.473756 89.172 -23.3363
105.230815 89.135 -23.4097
105.993361 89.098 -23.4807
106.761433 89.060 -23.5492
107.535070 89.021 -23.6150
108.314314 88.982 -23.6774
109.099204 88.943 -23.7352
109.889782 88.903 -23.7869
110.686088 88.863 -23.8304
111.488165 88.823 -23.8644
112.296055 88.783 -23.8881
113.109798 88.743 -23.9011
113.929438 88.703 -23.9034
114.755018 88.662 -23.8941
115.586580 88.622 -23.8715
116.424168 88.582 -23.8338
117.267826 88.544 -23.7804
118.117597 88.507 -23.7117
118.973525 88.474 -23.6291
119.835657 88.443 -23.5353
120.704035 88.417 -23.4343
121.578706 88.394 -23.3331
122.459716 88.375 -23.2405
123.347109 88.360 -23.1660
124.240933 88.347 -23.1162
125.141234 88.335 -23.0936
126.048059 88.324 -23.0961
126.961456 88.312 -23.1199
127.881471 88.299 -23.1608
128.808153 88.284 -23.2152
129.741550 88.267 -23.2798
130.681710 88.248 -23.3505
131.628684 88.227 -23.4235
132.582520 88.204 -23.4947
133.543267 88.180 -23.5613
134.510977 88.155 -23.6218
135.485699 88.129 -23.6761
136.467484 88.103 -23.7256
137.456384 88.077 -23.7725
138.452449 88.051 -23.8187
139.455733 88.026 -23.8654
140.466286 88.000 -23.9124
141.484163 87.974 -23.9590
142.509416 87.947 -24.0043
143.542098 87.919 -24.0470
144.582263 87.891 -24.0860
145.629965 87.862 -24.1201
146.685260 87.832 -24.1486
147.748202 87.803 -24.1713
148.818846 87.773 -24.1891
149.897249 87.743 -24.2035
150.983466 87.713 -24.2155
152.077555 87.684 -24.2252
153.179572 87.654 -24.2328
154.289574 87.625 -24.2385
155.407620 87.595 -24.2420
156.533767 87.566 -24.2432
157.668076 87.537 -24.2421
158.810603 87.509 -24.2388
159.961411 87.483 -24.2328
161.120557 87.458 -24.2235
162.288103 87.436 -24.2107
163.464109 87.416 -24.1945
164.648638 87.399 -24.1749
165.841750 87.386 -24.1522
167.043507 87.375 -24.1261
168.253973 87.363 -24.0966
169.473211 87.348 -24.0637
170.701284 87.325 -24.0271
171.938256 87.294 -23.9868
173.184191 87.255 -23.9432
174.439155 87.208 -23.8970
175.703213 87.152 -23.8475
176.976431 87.089 -23.7941
178.258875 87.022 -23.7360
179.550613 86.957 -23.6729
180.851710 86.896 -23.6052
182.162236 86.842 -23.5330
183.482259 86.795 -23.4571
184.811847 86.755 -23.3789
186.151070 86.723 -23.3007
187.499997 86.696 -23.2250
188.858700 86.674 -23.1528
190.227248 86.652 -23.0828
191.605713 86.632 -23.0118
192.994167 86.611 -22.9365
194.392682 86.590 -22.8543
195.801331 86.570 -22.7634
197.220189 86.551 -22.6625
198.649327 86.533 -22.5512
200.088822 86.516 -22.4316
201.538748 86.500 -22.3083
202.999181 86.486 -22.1881
204.470197 86.473 -22.0768
205.951872 86.461 -21.9776
207.444284 86.447 -21.8912
208.947511 86.434 -21.8170
210.461631 86.419 -21.7539
211.986723 86.402 -21.7002
213.522866 86.384 -21.6527
215.070141 86.363 -21.6074
216.628627 86.341 -21.5612
218.198408 86.317 -21.5118
219.779563 86.292 -21.4581
221.372177 86.266 -21.3992
222.976331 86.239 -21.3347
224.592109 86.212 -21.2645
226.219596 86.184 -21.1893
227.858877 86.155 -21.1095
229.510036 86.126 -21.0237
231.173160 86.096 -20.9295
232.848336 86.066 -20.8256
234.535651 86.037 -20.7128
236.235193 86.009 -20.5947
237.947051 85.981 -20.4741
239.671313 85.953 -20.3508
241.408071 85.926 -20.2220
243.157413 85.900 -20.0852
244.919432 85.875 -19.9399
246.694219 85.851 -19.7889
248.481867 85.829 -19.6356
250.282469 85.809 -19.4835
252.096119 85.791 -19.3375
253.922911 85.775 -19.2023
255.762941 85.759 -19.0797
257.616305 85.744 -18.9685
259.483099 85.727 -18.8664
261.363421 85.710 -18.7700
263.257368 85.692 -18.6758
265.165039 85.672 -18.5808
267.086534 85.651 -18.4837
269.021953 85.629 -18.3835
270.971397 85.607 -18.2791
272.934968 85.584 -18.1699
274.912767 85.561 -18.0565
276.904898 85.538 -17.9395
278.911465 85.515 -17.8197
280.932573 85.493 -17.6984
282.968326 85.470 -17.5751
285.018831 85.447 -17.4481
287.084195 85.425 -17.3176
289.164526 85.403 -17.1851
291.259931 85.382 -17.0510
293.370520 85.360 -16.9145
295.496404 85.338 -16.7742
297.637693 85.317 -16.6309
299.794498 85.296 -16.4869
301.966933 85.274 -16.3431
304.155110 85.253 -16.1993
306.359143 85.232 -16.0555
308.579148 85.212 -15.9104
310.815239 85.191 -15.7624
313.067535 85.171 -15.6112
315.336151 85.151 -15.4575
317.621207 85.132 -15.3019
319.922821 85.113 -15.1451
322.241114 85.094 -14.9882
324.576206 85.075 -14.8320
326.928219 85.056 -14.6770
329.297275 85.038 -14.5217
331.683499 85.019 -14.3636
334.087014 85.001 -14.2020
336.507947 84.982 -14.0378
338.946422 84.964 -13.8716
341.402567 84.946 -13.7040
343.876511 84.928 -13.5358
346.368382 84.911 -13.3671
348.878310 84.894 -13.1990
351.406426 84.877 -13.0322
353.952862 84.860 -12.8654
356.517750 84.844 -12.6960
359.101225 84.827 -12.5237
361.703421 84.810 -12.3486
364.324473 84.794 -12.1720
366.964518 84.778 -11.9951
369.623694 84.762 -11.8185
372.302140 84.746 -11.6418
374.999995 84.730 -11.4645
377.717399 84.715 -11.2855
380.454495 84.700 -11.1038
383.211425 84.685 -10.9192
385.988333 84.671 -10.7318
388.785364 84.656 -10.5430
391.602663 84.643 -10.3546
394.440377 84.629 -10.1675
397.298655 84.615 -9.9818
400.177644 84.601 -9.7965
403.077497 84.587 -9.6111
405.998362 84.573 -9.4252
408.940394 84.559 -9.2378
411.903744 84.545 -9.0477
414.888569 84.532 -8.8557
417.895022 84.520 -8.6627
420.923262 84.507 -8.4680
423.973445 84.495 -8.2707
427.045732 84.483 -8.0718
430.140281 84.471 -7.8722
433.257255 84.459 -7.6722
436.396816 84.447 -7.4722
439.559127 84.435 -7.2719
442.744354 84.423 -7.0698
445.952662 84.411 -6.8644
449.184218 84.400 -6.6561
452.439192 84.389 -6.4475
455.717753 84.378 -6.2407
459.020072 84.368 -6.0347
462.346321 84.357 -5.8271
465.696673 84.347 -5.6176
469.071303 84.336 -5.4061
472.470387 84.325 -5.1923
475.894102 84.314 -4.9756
479.342627 84.303 -4.7561
482.816141 84.293 -4.5366
486.314826 84.284 -4.3198
489.838864 84.275 -4.1058
493.388438 84.267 -3.8923
496.963734 84.258 -3.6755
500.564938 84.250 -3.4547
504.192238 84.243 -3.2318
507.845823 84.235 -3.0082
511.525883 84.227 -2.7841
515.232610 84.219 -2.5588
518.966198 84.212 -2.3323
522.726841 84.205 -2.1036
526.514735 84.198 -1.8733
530.330078 84.192 -1.6417
534.173068 84.185 -1.4079
538.043907 84.178 -1.1711
541.942795 84.172 -0.9327
545.869936 84.165 -0.6937
549.825534 84.158 -0.4540
553.809797 84.151 -0.2139
557.822931 84.145 0.0273
561.865146 84.139 0.2692
565.936652 84.134 0.5092
570.037662 84.128 0.7475
574.168390 84.123 0.9875
578.329051 84.118 1.2317
582.519862 84.113 1.4799
586.741041 84.108 1.7308
590.992808 84.104 1.9843
595.275386 84.100 2.2396
599.588997 84.096 2.4943
603.933866 84.093 2.7473
608.310219 84.089 3.0007
612.718286 84.085 3.2564
617.158295 84.082 3.5142
621.630479 84.078 3.7731
626.135069 84.075 4.0339
630.672302 84.072 4.2964
635.242414 84.069 4.5587
639.845642 84.066 4.8204
644.482227 84.063 5.0830
649.152411 84.059 5.3492
653.856437 84.056 5.6172
658.594551 84.054 5.8813
663.366998 84.051 6.1396
668.174029 84.048 6.3935
673.015893 84.045 6.6426
677.892844 84.041 6.8857
682.805135 84.034 7.1238
687.753022 84.024 7.3551
692.736764 84.010 7.5726
697.756620 83.989 7.7748
702.812853 83.957 7.9824
707.905724 83.911 8.2493
713.035501 83.856 8.6537
718.202450 83.803 9.2497
723.406841 83.767 10.0056
728.648945 83.754 10.8184
733.929036 83.761 11.6021
739.247388 83.780 12.3328
744.604279 83.807 13.0239
749.999989 83.840 13.6940
755.434798 83.880 14.3497
760.908990 83.928 14.9838
766.422850 83.984 15.5767
771.976666 84.047 16.1073
777.570727 84.114 16.5662
783.205325 84.181 16.9548
788.880754 84.246 17.2823
794.597309 84.306 17.5631
800.355289 84.362 17.8129
806.154993 84.413 18.0444
811.996725 84.460 18.2657
817.880788 84.503 18.4811
823.807489 84.542 18.6956
829.777138 84.578 18.9138
835.790045 84.612 19.1404
841.846524 84.645 19.3770
847.946891 84.678 19.6215
854.091464 84.710 19.8722
860.280562 84.742 20.1291
866.514510 84.774 20.3918
872.793631 84.807 20.6586
879.118254 84.839 20.9296
885.488707 84.873 21.2059
891.905323 84.907 21.4874
898.368437 84.943 21.7709
904.878385 84.979 22.0535
911.435507 85.015 22.3350
918.040144 85.052 22.6160
924.692641 85.090 22.8948
931.393345 85.129 23.1696
938.142606 85.170 23.4410
944.940774 85.211 23.7113
951.788204 85.254 23.9812
958.685254 85.297 24.2496
965.632282 85.342 24.5152
972.629652 85.388 24.7761
979.677727 85.435 25.0320
986.776876 85.483 25.2825
993.927468 85.533 25.5245
1001.129876 85.583 25.7566
1008.384476 85.633 25.9794
1015.691645 85.684 26.1953
1023.051766 85.735 26.4050
1030.465221 85.788 26.6073
1037.932396 85.841 26.8011
1045.453682 85.894 26.9868
1053.029471 85.949 27.1637
1060.660156 86.005 27.3321
1068.346137 86.061 27.4922
1076.087813 86.118 27.6438
1083.885589 86.176 27.7856
1091.739871 86.235 27.9180
1099.651068 86.293 28.0424
1107.619593 86.352 28.1584
1115.645861 86.411 28.2650
1123.730291 86.469 28.3628
1131.873304 86.528 28.4520
1140.075325 86.585 28.5327
1148.336780 86.643 28.6044
1156.658102 86.701 28.6680
1165.039724 86.759 28.7256
1173.482082 86.816 28.7772
1181.985617 86.874 28.8215
1190.550772 86.931 28.8565
1199.177993 86.988 28.8820
1207.867731 87.045 28.9006
1216.620439 87.102 28.9141
1225.436572 87.159 28.9218
1234.316591 87.215 28.9242
1243.260957 87.270 28.9223
1252.270139 87.325 28.9154
1261.344604 87.380 28.9029
1270.484827 87.435 28.8860
1279.691284 87.493 28.8661
1288.964455 87.554 28.8432
1298.304823 87.617 28.8161
1307.712874 87.682 28.7841
1317.189101 87.747 28.7464
1326.733996 87.811 28.7039
1336.348058 87.874 28.6590
1346.031787 87.936 28.6126
1355.785688 87.996 28.5647
1365.610270 88.054 28.5148
1375.506045 88.110 28.4622
1385.473529 88.164 28.4070
1395.513241 88.218 28.3506
1405.625705 88.270 28.2935
1415.811448 88.323 28.2341
1426.071002 88.376 28.1709
1436.404900 88.428 28.1038
1446.813682 88.480 28.0348
1457.297890 88.531 27.9663
1467.858072 88.582 27.8983
1478.494776 88.632 27.8292
1489.208559 88.681 27.7563
1499.999978 88.730 27.6786
1510.869596 88.777 27.5973
1521.817980 88.825 27.5136
1532.845701 88.872 27.4285
1543.953332 88.918 27.3425
1555.141455 88.964 27.2556
1566.410651 89.010 27.1670
1577.761508 89.054 27.0747
1589.194618 89.099 26.9771
1600.710578 89.143 26.8746
1612.309986 89.186 26.7695
1623.993449 89.230 26.6619
1635.761575 89.273 26.5509
1647.614978 89.316 26.4365
1659.554275 89.359 26.3184
1671.580089 89.401 26.1964
1683.693048 89.443 26.0703
1695.893782 89.486 25.9391
1708.182927 89.528 25.8027
1720.561125 89.569 25.6616
1733.029020 89.610 25.5175
1745.587263 89.651 25.3705
1758.236508 89.691 25.2198
1770.977414 89.732 25.0635
1783.810646 89.771 24.9014
1796.736874 89.811 24.7348
1809.756770 89.851 24.5635
1822.871013 89.892 24.3861
1836.080288 89.933 24.2019
1849.385283 89.974 24.0104
1862.786691 90.016 23.8108
1876.285211 90.058 23.6027
1889.881547 90.100 23.3866
1903.576408 90.143 23.1635
1917.370507 90.186 22.9332
1931.264564 90.229 22.6946
1945.259304 90.272 22.4470
1959.355454 90.315 22.1899
1973.553752 90.356 21.9240
1987.854936 90.397 21.6510
2002.259752 90.437 21.3722
2016.768952 90.477 21.0856
2031.383291 90.516 20.7900
2046.103531 90.554 20.4857
2060.930441 90.592 20.1734
2075.864793 90.629 19.8545
2090.907365 90.665 19.5286
2106.058941 90.700 19.1936
2121.320313 90.733 18.8498
2136.692274 90.765 18.5004
2152.175627 90.797 18.1479
2167.771179 90.827 17.7933
2183.479742 90.857 17.4351
2199.302137 90.887 17.0710
2215.239187 90.917 16.6992
2231.291723 90.945 16.3185
2247.460582 90.972 15.9297
2263.746608 90.998 15.5348
2280.150649 91.021 15.1354
2296.673561 91.044 14.7317
2313.316204 91.065 14.3224
2330.079447 91.084 13.9074
2346.964163 91.102 13.4873
2363.971233 91.118 13.0625
2381.101543 91.133 12.6343
2398.355986 91.146 12.2041
2415.735463 91.158 11.7723
2433.240878 91.168 11.3386
2450.873144 91.177 10.9033
2468.633181 91.183 10.4672
2486.521915 91.188 10.0301
2504.540278 91.191 9.5918
2522.689209 91.192 9.1535
2540.969655 91.192 8.7174
2559.382568 91.189 8.2850
2577.928909 91.185 7.8560
2596.609645 91.178 7.4304
2615.425749 91.169 7.0125
2634.378202 91.158 6.6062
2653.467992 91.145 6.2134
2672.696115 91.131 5.8344
2692.063573 91.115 5.4712
2711.571376 91.098 5.1257
2731.220539 91.081 4.8005
2751.012089 91.065 4.4999
2770.947057 91.049 4.2272
2791.026482 91.037 3.9814
2811.251410 91.028 3.7566
2831.622897 91.024 3.5428
2852.142003 91.027 3.3278
2872.809800 91.036 3.0950
2893.627364 91.050 2.8279
2914.595781 91.066 2.5154
2935.716143 91.083 2.1532
2956.989553 91.098 1.7432
2978.417118 91.109 1.2896
2999.999956 91.115 0.8010
3021.739192 91.115 0.2905
3043.635960 91.109 -0.2289
3065.691401 91.097 -0.7501
3087.906665 91.080 -1.2700
3110.282909 91.058 -1.7859
3132.821301 91.032 -2.2952
3155.523016 91.002 -2.7958
3178.389237 90.970 -3.2872
3201.421155 90.936 -3.7703
3224.619973 90.900 -4.2472
3247.986898 90.864 -4.7192
3271.523150 90.829 -5.1871
3295.229956 90.795 -5.6506
3319.108550 90.763 -6.1106
3343.160179 90.735 -6.5688
3367.386096 90.713 -7.0269
3391.787563 90.695 -7.4857
3416.365854 90.681 -7.9446
3441.122250 90.670 -8.4034
3466.058040 90.662 -8.8621
3491.174525 90.655 -9.3213
3516.473015 90.647 -9.7828
3541.954828 90.638 -10.2484
3567.621293 90.624 -10.7189
3593.473747 90.606 -11.1945
3619.513539 90.583 -11.6767
3645.742027 90.555 -12.1673
3672.160576 90.521 -12.6680
3698.770566 90.480 -13.1796
3725.573382 90.434 -13.7016
3752.570422 90.382 -14.2351
3779.763094 90.325 -14.7811
3807.152816 90.263 -15.3389
3834.741015 90.197 -15.9077
3862.529129 90.125 -16.4884
3890.518607 90.049 -17.0808
3918.710909 89.968 -17.6840
3947.107503 89.881 -18.2953
3975.709871 89.788 -18.9108
4004.519504 89.687 -19.5277
4033.537903 89.578 -20.1422
4062.766581 89.459 -20.7442
4092.207063 89.332 -21.3184
4121.860882 89.197 -21.8505
4151.729585 89.055 -22.3291
4181.814729 88.909 -22.7458
4212.117883 88.761 -23.0986
4242.640625 88.613 -23.3926
4273.384548 88.468 -23.6373
4304.351254 88.326 -23.8440
4335.542358 88.186 -24.0257
4366.959485 88.050 -24.1949
4398.604273 87.916 -24.3613
4430.478373 87.782 -24.5286
4462.583446 87.649 -24.6967
4494.921165 87.513 -24.8645
4527.493217 87.376 -25.0310
4560.301299 87.235 -25.1913
4593.347122 87.091 -25.3373
4626.632409 86.942 -25.4608
4660.158894 86.788 -25.5540
4693.928327 86.629 -25.6102
4727.942466 86.465 -25.6217
4762.203086 86.297 -25.5786
4796.711973 86.125 -25.4742
4831.470925 85.952 -25.3069
4866.481755 85.779 -25.0767
4901.746288 85.606 -24.7838
4937.266362 85.435 -24.4316
4973.043830 85.266 -24.0253
5009.080555 85.099 -23.5705
5045.378418 84.934 -23.0720
5081.939310 84.771 -22.5280
5118.765137 84.612 -21.9329
5155.857819 84.456 -21.2828
5193.219290 84.306 -20.5749
5230.851498 84.162 -19.8055
5268.756404 84.025 -18.9741
5306.935985 83.894 -18.0828
5345.392231 83.770 -17.1295
5384.127146 83.653 -16.1075
5423.142751 83.543 -15.0145
5462.441079 83.438 -13.8527
5502.024179 83.340 -12.6262
5541.894114 83.249 -11.3422
5582.052963 83.165 -10.0066
5622.502820 83.089 -8.6237
5663.245793 83.021 -7.1997
5704.284007 82.964 -5.7466
5745.619600 82.920 -4.2833
5787.254728 82.888 -2.8319
5829.191562 82.868 -1.4144
5871.432287 82.861 -0.0504
5913.979105 82.864 1.2443
5956.834236 82.878 2.4561
5999.999912 82.899 3.5778
6043.478385 82.923 4.6055
6087.271921 82.946 5.5402
6131.382802 82.966 6.3894
6175.813330 82.981 7.1670
6220.565819 82.989 7.8931
6265.642603 82.988 8.5930
6311.046032 82.978 9.2900
6356.778473 82.959 10.0007
6402.842310 82.933 10.7412
6449.239945 82.901 11.5349
6495.973796 82.866 12.4033
6543.046300 82.833 13.3543
6590.459911 82.807 14.3809
6638.217100 82.795 15.4519
6686.320358 82.800 16.4943
6734.772191 82.814 17.4203
6783.575127 82.818 18.2188
6832.731709 82.801 19.0203
6882.244499 82.771 19.9866
6932.116080 82.750 21.1624
6982.349051 82.755 22.4648
7032.946030 82.788 23.7748
7083.909656 82.842 25.0162
7135.242586 82.910 26.1705
7186.947495 82.984 27.2516
7239.027079 83.065 28.2798
7291.484053 83.150 29.2753
7344.321152 83.242 30.2557
7397.541131 83.342 31.2353
7451.146763 83.454 32.2207
7505.140844 83.582 33.2102
7559.526189 83.727 34.2016
7614.305632 83.891 35.1930
7669.482029 84.069 36.1775
7725.058258 84.263 37.1452
7781.037214 84.472 38.0860
7837.421817 84.694 38.9890
7894.215007 84.928 39.8420
7951.419743 85.169 40.6345
8009.039008 85.412 41.3554
8067.075806 85.654 41.9898
8125.533163 85.901 42.5188
8184.414126 86.156 42.9193
8243.721764 86.422 43.1657
8303.459170 86.699 43.2306
8363.629458 86.987 43.0845
8424.235765 87.285 42.6972
8485.281250 87.591 42.0387
8546.769096 87.900 41.0796
8608.702508 88.205 39.7943
8671.084715 88.496 38.1678
8733.918969 88.764 36.1997
8797.208547 88.997 33.9060
8860.956746 89.186 31.3191
8925.166891 89.321 28.4877
8989.842330 89.393 25.4795
9054.986433 89.396 22.3785
9120.602598 89.331 19.2775
9186.694244 89.197 16.2697
9253.264817 89.002 13.4434
9320.317788 88.753 10.8740
9387.856653 88.462 8.6171
9455.884932 88.139 6.7065
9524.406173 87.797 5.1551
9593.423946 87.446 3.9563
9662.941850 87.095 3.0875
9732.963510 86.750 2.5157
9803.492576 86.414 2.2076
9874.532725 86.088 2.1449
9946.087659 85.773 2.3245
10018.161110 85.475 2.7468
10090.756835 85.199 3.4028
10163.878619 84.950 4.2688
10237.530273 84.734 5.3093
10311.715638 84.553 6.4816
10386.438580 84.410 7.7421
10461.702996 84.304 9.0531
10537.512808 84.234 10.3904
10613.871970 84.200 11.7426
10690.784461 84.202 13.1022
10768.254293 84.243 14.4573
10846.285502 84.325 15.7859
10924.882158 84.450 17.0564
11004.048358 84.621 18.2350
11083.788228 84.841 19.2822
11164.105927 85.114 20.1432
11245.005640 85.441 20.7457
11326.491587 85.824 21.0000
11408.568014 86.263 20.7981
11491.239200 86.749 20.0121
11574.509457 87.271 18.4995
11658.383123 87.806 16.1173
11742.864573 88.324 12.7465
11827.958211 88.783 8.3248
11913.668472 89.134 2.8875
11999.999825 89.329 -3.4019
12086.956770 89.329 -10.2448
12174.543841 89.110 -17.2427
12262.765605 88.674 -23.9661
12351.626659 88.044 -30.0346
12441.131638 87.259 -35.1803
12531.285206 86.367 -39.2760
12622.092064 85.415 -42.3233
12713.556946 84.442 -44.4137
12805.684621 83.475 -45.6814
12898.479890 82.532 -46.2684
12991.947593 81.624 -46.3114
13086.092601 80.756 -45.9346
13180.919822 79.928 -45.2446
13276.434201 79.134 -44.3312
13372.640716 78.374 -43.2664
13469.544383 77.651 -42.1069
13567.150254 76.975 -40.9018
13665.463417 76.361 -39.6973
13764.488998 75.834 -38.5350
13864.232160 75.449 -37.4490
13964.698101 75.298 -36.4648
14065.892060 75.450 -35.5980
14167.819312 75.850 -34.8571
14270.485171 76.342 -34.2451
14373.894990 76.769 -33.7546
14478.054158 77.006 -33.3676
14582.968107 76.980 -33.0466
14688.642305 76.710 -32.7344
14795.082262 76.268 -32.3743
14902.293527 75.723 -31.9153
15010.281689 75.121 -31.3071
15119.052378 74.490 -30.5222
15228.611264 73.852 -29.5734
15338.964058 73.236 -28.5068
15450.116515 72.672 -27.3816
15562.074428 72.189 -26.2570
15674.843635 71.793 -25.1894
15788.430013 71.463 -24.2087
15902.839485 71.182 -23.3011
16018.078016 70.946 -22.4278
16134.151612 70.747 -21.5320
16251.066326 70.563 -20.5377
16368.828251 70.363 -19.3723
16487.443528 70.117 -17.9885
16606.918341 69.813 -16.3655
16727.258917 69.461 -14.4998
16848.471530 69.087 -12.3789
16970.562500 68.717 -9.9897
17093.538192 68.368 -7.3448
17217.405016 68.049 -4.4882
17342.169430 67.767 -1.4739
17467.837939 67.531 1.6278
17594.417093 67.347 4.7123
17721.913492 67.215 7.6697
17850.333783 67.131 10.4095
17979.684660 67.083 12.8416
18109.972866 67.049 14.8901
18241.205195 67.003 16.5277
18373.388487 66.917 17.8027
18506.529634 66.768 18.8640
18640.635577 66.546 19.9346
18775.713306 66.268 21.2581
18911.769865 65.974 22.9208
19048.812345 65.695 24.7098
19186.847892 65.430 26.2758
19325.883701 65.141 27.4139
19465.927021 64.784 28.1627
19606.985152 64.336 28.7509
19749.065449 63.829 29.4685
19892.175318 63.365 30.4449
20036.322221 63.092 31.3376
