* Measurement data measured by REW V5.40 beta 105
* Source: Microphone (USB Multi-Channel Audio Device), MICROPHONE (Master Volume), L, volume: 0.500
* Format: 256k Log Swept Sine, 1 sweep at -6.0 dBFS with no timing reference
* Dated: Nov 20, 2025 10:42:57 PM
* REW Settings:
*  C-weighting compensation: Off
*  Target level: 75.0 dB
* Note: ; 
* Measurement: Kunten L Radius Deepmounts
* Smoothing: 1/24 octave
* Frequency Step: 96 ppo
* Start Frequency: 20.0 Hz
*
* Freq(Hz) SPL(dB) Phase(degrees)
19.995176 92.962 -141.7278
20.140070 92.968 -142.1985
20.286013 92.973 -142.6677
20.433014 92.979 -143.1355
20.581080 92.983 -143.6019
20.730219 92.988 -144.0668
20.880438 92.992 -144.5303
21.031747 92.996 -144.9924
21.184151 92.999 -145.4530
21.337660 93.002 -145.9121
21.492282 93.005 -146.3697
21.648024 93.007 -146.8257
21.804894 93.009 -147.2803
21.962902 93.011 -147.7332
22.122054 93.012 -148.1845
22.282359 93.013 -148.6342
22.443827 93.013 -149.0822
22.606464 93.013 -149.5284
22.770280 93.013 -149.9730
22.935282 93.013 -150.4158
23.101481 93.012 -150.8568
23.268884 93.011 -151.2961
23.437500 93.009 -151.7336
23.607337 93.007 -152.1693
23.778406 93.005 -152.6032
23.950714 93.003 -153.0353
24.124271 93.000 -153.4657
24.299085 92.997 -153.8944
24.475166 92.994 -154.3213
24.652524 92.991 -154.7466
24.831166 92.987 -155.1702
25.011103 92.983 -155.5922
25.192344 92.979 -156.0127
25.374898 92.975 -156.4317
25.558775 92.970 -156.8492
25.743984 92.966 -157.2653
25.930536 92.961 -157.6801
26.118439 92.955 -158.0937
26.307704 92.950 -158.5060
26.498340 92.944 -158.9171
26.690358 92.938 -159.3270
26.883768 92.932 -159.7358
27.078578 92.925 -160.1434
27.274801 92.918 -160.5499
27.472445 92.911 -160.9553
27.671522 92.904 -161.3594
27.872041 92.896 -161.7623
28.074014 92.888 -162.1638
28.277450 92.880 -162.5640
28.482360 92.871 -162.9628
28.688755 92.862 -163.3600
28.896645 92.853 -163.7556
29.106042 92.843 -164.1495
29.316956 92.833 -164.5416
29.529399 92.823 -164.9320
29.743381 92.812 -165.3205
29.958914 92.801 -165.7071
30.176009 92.790 -166.0918
30.394677 92.779 -166.4745
30.614929 92.767 -166.8553
30.836777 92.755 -167.2343
31.060233 92.743 -167.6113
31.285309 92.731 -167.9864
31.512015 92.719 -168.3598
31.740364 92.706 -168.7314
31.970368 92.693 -169.1013
32.202038 92.680 -169.4695
32.435387 92.666 -169.8361
32.670428 92.653 -170.2011
32.907171 92.639 -170.5645
33.145630 92.625 -170.9262
33.385817 92.610 -171.2864
33.627744 92.596 -171.6449
33.871425 92.581 -172.0016
34.116871 92.566 -172.3565
34.364096 92.550 -172.7096
34.613112 92.535 -173.0608
34.863933 92.519 -173.4100
35.116572 92.503 -173.7571
35.371041 92.487 -174.1023
35.627354 92.470 -174.4454
35.885524 92.453 -174.7866
36.145566 92.437 -175.1259
36.407491 92.419 -175.4633
36.671315 92.402 -175.7989
36.937051 92.385 -176.1328
37.204712 92.367 -176.4649
37.474312 92.349 -176.7953
37.745867 92.331 -177.1239
38.019389 92.312 -177.4505
38.294893 92.294 -177.7751
38.572393 92.275 -178.0975
38.851905 92.256 -178.4173
39.133442 92.236 -178.7346
39.417019 92.217 -179.0490
39.702651 92.197 -179.3605
39.990353 92.177 -179.6690
40.280139 92.157 -179.9746
40.572026 92.137 179.7226
40.866027 92.117 179.4224
41.162159 92.097 179.1247
41.460437 92.077 178.8292
41.760877 92.057 178.5356
42.063493 92.037 178.2437
42.368303 92.017 177.9532
42.675321 91.997 177.6640
42.984564 91.977 177.3757
43.296048 91.958 177.0883
43.609789 91.938 176.8014
43.925803 91.918 176.5149
44.244108 91.898 176.2288
44.564719 91.878 175.9429
44.887653 91.858 175.6572
45.212928 91.837 175.3719
45.540559 91.816 175.0870
45.870565 91.795 174.8029
46.202962 91.774 174.5197
46.537767 91.752 174.2378
46.874999 91.730 173.9575
47.214675 91.707 173.6789
47.556812 91.684 173.4025
47.901428 91.661 173.1285
48.248542 91.638 172.8573
48.598170 91.614 172.5889
48.950333 91.590 172.3237
49.305047 91.566 172.0616
49.662332 91.541 171.8027
50.022206 91.517 171.5469
50.384687 91.493 171.2938
50.749795 91.468 171.0432
51.117549 91.444 170.7944
51.487968 91.420 170.5472
51.861071 91.396 170.3010
52.236878 91.372 170.0557
52.615408 91.347 169.8110
52.996681 91.323 169.5671
53.380716 91.298 169.3242
53.767535 91.273 169.0825
54.157157 91.248 168.8425
54.549602 91.223 168.6043
54.944891 91.198 168.3680
55.343044 91.172 168.1338
55.744083 91.146 167.9013
56.148027 91.121 167.6703
56.554899 91.095 167.4404
56.964719 91.069 167.2114
57.377509 91.043 166.9829
57.793290 91.017 166.7551
58.212084 90.990 166.5281
58.633913 90.963 166.3022
59.058798 90.936 166.0779
59.486763 90.908 165.8557
59.917828 90.881 165.6357
60.352018 90.852 165.4183
60.789353 90.824 165.2036
61.229858 90.795 164.9913
61.673555 90.767 164.7815
62.120467 90.738 164.5743
62.570617 90.708 164.3697
63.024030 90.679 164.1679
63.480728 90.650 163.9689
63.940735 90.620 163.7728
64.404076 90.591 163.5793
64.870775 90.561 163.3882
65.340855 90.532 163.1993
65.814342 90.502 163.0123
66.291260 90.472 162.8270
66.771634 90.443 162.6432
67.255488 90.413 162.4611
67.742849 90.383 162.2805
68.233742 90.353 162.1017
68.728192 90.322 161.9249
69.226225 90.292 161.7504
69.727866 90.261 161.5783
70.233143 90.230 161.4088
70.742082 90.200 161.2420
71.254708 90.169 161.0776
71.771049 90.138 160.9156
72.291131 90.107 160.7560
72.814983 90.075 160.5985
73.342630 90.044 160.4434
73.874101 90.013 160.2904
74.409423 89.982 160.1394
74.948625 89.950 159.9902
75.491733 89.919 159.8425
76.038777 89.887 159.6964
76.589786 89.856 159.5518
77.144787 89.824 159.4091
77.703810 89.792 159.2685
78.266884 89.760 159.1304
78.834038 89.727 158.9950
79.405302 89.695 158.8624
79.980705 89.662 158.7323
80.560278 89.630 158.6047
81.144051 89.597 158.4792
81.732055 89.565 158.3556
82.324319 89.533 158.2334
82.920875 89.500 158.1124
83.521754 89.468 157.9925
84.126987 89.435 157.8738
84.736605 89.402 157.7566
85.350642 89.368 157.6417
85.969128 89.335 157.5295
86.592096 89.301 157.4207
87.219578 89.268 157.3152
87.851607 89.234 157.2129
88.488216 89.200 157.1135
89.129438 89.166 157.0164
89.775306 89.133 156.9211
90.425855 89.099 156.8276
91.081118 89.065 156.7358
91.741129 89.032 156.6458
92.405924 88.998 156.5580
93.075535 88.964 156.4724
93.749999 88.930 156.3889
94.429350 88.895 156.3074
95.113624 88.861 156.2276
95.802856 88.827 156.1499
96.497083 88.792 156.0744
97.196341 88.758 156.0017
97.900666 88.723 155.9318
98.610094 88.688 155.8647
99.324664 88.654 155.8002
100.044411 88.619 155.7376
100.769374 88.585 155.6765
101.499591 88.550 155.6161
102.235098 88.516 155.5565
102.975936 88.481 155.4977
103.722142 88.446 155.4407
104.473756 88.410 155.3867
105.230815 88.375 155.3369
105.993361 88.339 155.2918
106.761433 88.302 155.2515
107.535070 88.266 155.2153
108.314314 88.230 155.1826
109.099204 88.194 155.1525
109.889782 88.158 155.1249
110.686088 88.122 155.1002
111.488165 88.086 155.0790
112.296055 88.049 155.0621
113.109798 88.012 155.0498
113.929438 87.976 155.0417
114.755018 87.939 155.0377
115.586580 87.902 155.0375
116.424168 87.864 155.0418
117.267826 87.827 155.0515
118.117597 87.789 155.0679
118.973525 87.751 155.0922
119.835657 87.714 155.1248
120.704035 87.676 155.1656
121.578706 87.640 155.2143
122.459716 87.603 155.2709
123.347109 87.567 155.3361
124.240933 87.533 155.4104
125.141234 87.499 155.4942
126.048059 87.466 155.5876
126.961456 87.435 155.6901
127.881471 87.406 155.8009
128.808153 87.379 155.9182
129.741550 87.354 156.0399
130.681710 87.333 156.1633
131.628684 87.314 156.2842
132.582520 87.298 156.3982
133.543267 87.286 156.5000
134.510977 87.275 156.5850
135.485699 87.267 156.6489
136.467484 87.259 156.6897
137.456384 87.251 156.7071
138.452449 87.242 156.7031
139.455733 87.232 156.6806
140.466286 87.220 156.6433
141.484163 87.206 156.5948
142.509416 87.190 156.5384
143.542098 87.171 156.4768
144.582263 87.151 156.4125
145.629965 87.128 156.3481
146.685260 87.103 156.2864
147.748202 87.077 156.2298
148.818846 87.049 156.1804
149.897249 87.020 156.1386
150.983466 86.990 156.1035
152.077555 86.960 156.0730
153.179572 86.930 156.0450
154.289574 86.899 156.0198
155.407620 86.867 155.9996
156.533767 86.834 155.9881
157.668076 86.801 155.9865
158.810603 86.767 155.9930
159.961411 86.734 156.0056
161.120557 86.701 156.0230
162.288103 86.668 156.0452
163.464109 86.634 156.0728
164.648638 86.601 156.1069
165.841750 86.568 156.1484
167.043507 86.535 156.1963
168.253973 86.504 156.2477
169.473211 86.472 156.3001
170.701284 86.441 156.3525
171.938256 86.410 156.4060
173.184191 86.379 156.4619
174.439155 86.347 156.5208
175.703213 86.316 156.5824
176.976431 86.284 156.6469
178.258875 86.253 156.7140
179.550613 86.221 156.7837
180.851710 86.190 156.8560
182.162236 86.158 156.9318
183.482259 86.127 157.0120
184.811847 86.096 157.0963
186.151070 86.065 157.1844
187.499997 86.034 157.2767
188.858700 86.004 157.3733
190.227248 85.974 157.4733
191.605713 85.945 157.5755
192.994167 85.917 157.6793
194.392682 85.889 157.7846
195.801331 85.861 157.8919
197.220189 85.833 158.0017
198.649327 85.806 158.1143
200.088822 85.779 158.2301
201.538748 85.752 158.3485
202.999181 85.727 158.4682
204.470197 85.702 158.5876
205.951872 85.678 158.7065
207.444284 85.654 158.8255
208.947511 85.631 158.9446
210.461631 85.608 159.0629
211.986723 85.586 159.1790
213.522866 85.564 159.2933
215.070141 85.541 159.4071
216.628627 85.520 159.5211
218.198408 85.498 159.6352
219.779563 85.476 159.7483
221.372177 85.455 159.8594
222.976331 85.433 159.9688
224.592109 85.412 160.0778
226.219596 85.390 160.1875
227.858877 85.368 160.2981
229.510036 85.347 160.4080
231.173160 85.325 160.5156
232.848336 85.303 160.6210
234.535651 85.281 160.7257
236.235193 85.259 160.8318
237.947051 85.236 160.9402
239.671313 85.213 161.0506
241.408071 85.191 161.1619
243.157413 85.168 161.2734
244.919432 85.145 161.3856
246.694219 85.122 161.4996
248.481867 85.099 161.6171
250.282469 85.075 161.7386
252.096119 85.052 161.8636
253.922911 85.029 161.9909
255.762941 85.005 162.1198
257.616305 84.982 162.2505
259.483099 84.959 162.3839
261.363421 84.936 162.5211
263.257368 84.913 162.6636
265.165039 84.891 162.8124
267.086534 84.868 162.9669
269.021953 84.847 163.1260
270.971397 84.826 163.2886
272.934968 84.806 163.4539
274.912767 84.786 163.6204
276.904898 84.767 163.7874
278.911465 84.749 163.9553
280.932573 84.731 164.1246
282.968326 84.715 164.2931
285.018831 84.700 164.4580
287.084195 84.685 164.6170
289.164526 84.672 164.7695
291.259931 84.659 164.9157
293.370520 84.645 165.0560
295.496404 84.632 165.1907
297.637693 84.618 165.3201
299.794498 84.603 165.4454
301.966933 84.587 165.5690
304.155110 84.569 165.6936
306.359143 84.551 165.8211
308.579148 84.533 165.9517
310.815239 84.514 166.0849
313.067535 84.495 166.2206
315.336151 84.476 166.3595
317.621207 84.457 166.5020
319.922821 84.438 166.6476
322.241114 84.419 166.7965
324.576206 84.400 166.9491
326.928219 84.382 167.1053
329.297275 84.364 167.2633
331.683499 84.347 167.4214
334.087014 84.330 167.5802
336.507947 84.312 167.7399
338.946422 84.295 167.9011
341.402567 84.277 168.0645
343.876511 84.259 168.2303
346.368382 84.242 168.3979
348.878310 84.225 168.5668
351.406426 84.208 168.7382
353.952862 84.191 168.9121
356.517750 84.174 169.0878
359.101225 84.158 169.2651
361.703421 84.142 169.4440
364.324473 84.126 169.6236
366.964518 84.110 169.8043
369.623694 84.095 169.9868
372.302140 84.079 170.1713
374.999995 84.064 170.3583
377.717399 84.049 170.5474
380.454495 84.035 170.7368
383.211425 84.020 170.9263
385.988333 84.006 171.1162
388.785364 83.992 171.3056
391.602663 83.978 171.4946
394.440377 83.964 171.6849
397.298655 83.951 171.8777
400.177644 83.937 172.0732
403.077497 83.923 172.2714
405.998362 83.910 172.4719
408.940394 83.898 172.6735
411.903744 83.885 172.8739
414.888569 83.873 173.0721
417.895022 83.861 173.2701
420.923262 83.849 173.4698
423.973445 83.837 173.6715
427.045732 83.825 173.8759
430.140281 83.813 174.0825
433.257255 83.801 174.2899
436.396816 83.790 174.4965
439.559127 83.779 174.7031
442.744354 83.768 174.9126
445.952662 83.757 175.1263
449.184218 83.747 175.3420
452.439192 83.736 175.5572
455.717753 83.726 175.7704
459.020072 83.716 175.9814
462.346321 83.707 176.1932
465.696673 83.697 176.4077
469.071303 83.687 176.6258
472.470387 83.677 176.8468
475.894102 83.668 177.0692
479.342627 83.659 177.2924
482.816141 83.650 177.5172
486.314826 83.641 177.7441
489.838864 83.632 177.9731
493.388438 83.624 178.2024
496.963734 83.617 178.4317
500.564938 83.609 178.6630
504.192238 83.602 178.8953
507.845823 83.595 179.1257
511.525883 83.587 179.3557
515.232610 83.580 179.5886
518.966198 83.572 179.8251
522.726841 83.566 -179.9355
526.514735 83.560 -179.6937
530.330078 83.554 -179.4506
534.173068 83.549 -179.2088
538.043907 83.543 -178.9678
541.942795 83.538 -178.7257
545.869936 83.532 -178.4807
549.825534 83.526 -178.2310
553.809797 83.521 -177.9773
557.822931 83.516 -177.7219
561.865146 83.511 -177.4680
565.936652 83.507 -177.2170
570.037662 83.503 -176.9664
574.168390 83.499 -176.7122
578.329051 83.496 -176.4535
582.519862 83.493 -176.1926
586.741041 83.491 -175.9320
590.992808 83.489 -175.6715
595.275386 83.487 -175.4081
599.588997 83.485 -175.1407
603.933866 83.483 -174.8708
608.310219 83.483 -174.6009
612.718286 83.482 -174.3309
617.158295 83.482 -174.0590
621.630479 83.482 -173.7847
626.135069 83.482 -173.5070
630.672302 83.482 -173.2239
635.242414 83.483 -172.9368
639.845642 83.483 -172.6485
644.482227 83.484 -172.3593
649.152411 83.486 -172.0703
653.856437 83.487 -171.7836
658.594551 83.490 -171.4971
663.366998 83.491 -171.2060
668.174029 83.493 -170.9074
673.015893 83.496 -170.6028
677.892844 83.498 -170.2961
682.805135 83.501 -169.9866
687.753022 83.504 -169.6692
692.736764 83.508 -169.3402
697.756620 83.513 -169.0008
702.812853 83.520 -168.6548
707.905724 83.529 -168.3056
713.035501 83.541 -167.9578
718.202450 83.556 -167.6181
723.406841 83.572 -167.2937
728.648945 83.589 -166.9848
733.929036 83.605 -166.6841
739.247388 83.619 -166.3844
744.604279 83.633 -166.0808
749.999989 83.645 -165.7709
755.434798 83.658 -165.4540
760.908990 83.672 -165.1326
766.422850 83.686 -164.8092
771.976666 83.701 -164.4845
777.570727 83.717 -164.1569
783.205325 83.733 -163.8278
788.880754 83.751 -163.4978
794.597309 83.769 -163.1653
800.355289 83.788 -162.8294
806.154993 83.809 -162.4900
811.996725 83.831 -162.1478
817.880788 83.854 -161.8049
823.807489 83.878 -161.4644
829.777138 83.902 -161.1255
835.790045 83.927 -160.7834
841.846524 83.954 -160.4381
847.946891 83.982 -160.0930
854.091464 84.011 -159.7503
860.280562 84.041 -159.4108
866.514510 84.072 -159.0739
872.793631 84.104 -158.7387
879.118254 84.138 -158.4064
885.488707 84.172 -158.0764
891.905323 84.207 -157.7466
898.368437 84.244 -157.4176
904.878385 84.281 -157.0908
911.435507 84.320 -156.7660
918.040144 84.359 -156.4424
924.692641 84.399 -156.1215
931.393345 84.441 -155.8059
938.142606 84.485 -155.4985
944.940774 84.530 -155.1995
951.788204 84.576 -154.9057
958.685254 84.623 -154.6139
965.632282 84.671 -154.3244
972.629652 84.719 -154.0412
979.677727 84.769 -153.7668
986.776876 84.819 -153.5018
993.927468 84.870 -153.2444
1001.129876 84.921 -152.9906
1008.384476 84.974 -152.7421
1015.691645 85.028 -152.5029
1023.051766 85.083 -152.2719
1030.465221 85.138 -152.0479
1037.932396 85.194 -151.8317
1045.453682 85.250 -151.6243
1053.029471 85.307 -151.4247
1060.660156 85.363 -151.2316
1068.346137 85.420 -151.0469
1076.087813 85.478 -150.8742
1083.885589 85.535 -150.7135
1091.739871 85.593 -150.5620
1099.651068 85.652 -150.4184
1107.619593 85.711 -150.2818
1115.645861 85.769 -150.1509
1123.730291 85.827 -150.0251
1131.873304 85.885 -149.9073
1140.075325 85.943 -149.8013
1148.336780 86.001 -149.7065
1156.658102 86.059 -149.6193
1165.039724 86.117 -149.5383
1173.482082 86.174 -149.4637
1181.985617 86.231 -149.3952
1190.550772 86.287 -149.3330
1199.177993 86.343 -149.2763
1207.867731 86.398 -149.2241
1216.620439 86.453 -149.1772
1225.436572 86.507 -149.1373
1234.316591 86.562 -149.1045
1243.260957 86.616 -149.0781
1252.270139 86.670 -149.0567
1261.344604 86.724 -149.0397
1270.484827 86.777 -149.0261
1279.691284 86.830 -149.0149
1288.964455 86.883 -149.0055
1298.304823 86.935 -148.9986
1307.712874 86.986 -148.9965
1317.189101 87.036 -148.9986
1326.733996 87.086 -149.0024
1336.348058 87.135 -149.0070
1346.031787 87.184 -149.0141
1355.785688 87.233 -149.0260
1365.610270 87.281 -149.0408
1375.506045 87.330 -149.0566
1385.473529 87.378 -149.0744
1395.513241 87.426 -149.0955
1405.625705 87.474 -149.1206
1415.811448 87.522 -149.1482
1426.071002 87.570 -149.1766
1436.404900 87.617 -149.2050
1446.813682 87.665 -149.2353
1457.297890 87.713 -149.2694
1467.858072 87.760 -149.3055
1478.494776 87.807 -149.3422
1489.208559 87.854 -149.3808
1499.999978 87.901 -149.4230
1510.869596 87.948 -149.4706
1521.817980 87.995 -149.5222
1532.845701 88.043 -149.5765
1543.953332 88.090 -149.6338
1555.141455 88.137 -149.6930
1566.410651 88.185 -149.7523
1577.761508 88.232 -149.8128
1589.194618 88.280 -149.8768
1600.710578 88.328 -149.9452
1612.309986 88.376 -150.0174
1623.993449 88.424 -150.0941
1635.761575 88.472 -150.1764
1647.614978 88.520 -150.2644
1659.554275 88.568 -150.3580
1671.580089 88.616 -150.4571
1683.693048 88.665 -150.5613
1695.893782 88.713 -150.6696
1708.182927 88.762 -150.7821
1720.561125 88.811 -150.8994
1733.029020 88.859 -151.0215
1745.587263 88.907 -151.1489
1758.236508 88.956 -151.2817
1770.977414 89.004 -151.4201
1783.810646 89.053 -151.5654
1796.736874 89.102 -151.7183
1809.756770 89.151 -151.8784
1822.871013 89.199 -152.0441
1836.080288 89.247 -152.2154
1849.385283 89.294 -152.3936
1862.786691 89.342 -152.5798
1876.285211 89.390 -152.7740
1889.881547 89.437 -152.9763
1903.576408 89.484 -153.1866
1917.370507 89.531 -153.4056
1931.264564 89.577 -153.6340
1945.259304 89.623 -153.8708
1959.355454 89.668 -154.1138
1973.553752 89.712 -154.3643
1987.854936 89.756 -154.6255
2002.259752 89.800 -154.8979
2016.768952 89.843 -155.1793
2031.383291 89.886 -155.4678
2046.103531 89.928 -155.7624
2060.930441 89.969 -156.0633
2075.864793 90.009 -156.3722
2090.907365 90.048 -156.6908
2106.058941 90.086 -157.0180
2121.320313 90.123 -157.3514
2136.692274 90.158 -157.6903
2152.175627 90.193 -158.0361
2167.771179 90.226 -158.3900
2183.479742 90.258 -158.7530
2199.302137 90.289 -159.1253
2215.239187 90.318 -159.5045
2231.291723 90.346 -159.8897
2247.460582 90.373 -160.2826
2263.746608 90.398 -160.6857
2280.150649 90.421 -161.0978
2296.673561 90.441 -161.5125
2313.316204 90.458 -161.9211
2330.079447 90.474 -162.3211
2346.964163 90.489 -162.7189
2363.971233 90.503 -163.1210
2381.101543 90.516 -163.5285
2398.355986 90.527 -163.9402
2415.735463 90.536 -164.3531
2433.240878 90.544 -164.7650
2450.873144 90.550 -165.1753
2468.633181 90.554 -165.5824
2486.521915 90.557 -165.9834
2504.540278 90.558 -166.3763
2522.689209 90.557 -166.7591
2540.969655 90.555 -167.1304
2559.382568 90.552 -167.4894
2577.928909 90.549 -167.8367
2596.609645 90.545 -168.1719
2615.425749 90.543 -168.4946
2634.378202 90.542 -168.8065
2653.467992 90.543 -169.1109
2672.696115 90.545 -169.4127
2692.063573 90.551 -169.7175
2711.571376 90.558 -170.0305
2731.220539 90.569 -170.3581
2751.012089 90.580 -170.7070
2770.947057 90.592 -171.0813
2791.026482 90.603 -171.4818
2811.251410 90.613 -171.9064
2831.622897 90.620 -172.3503
2852.142003 90.625 -172.8086
2872.809800 90.626 -173.2776
2893.627364 90.624 -173.7531
2914.595781 90.619 -174.2319
2935.716143 90.611 -174.7120
2956.989553 90.601 -175.1907
2978.417118 90.588 -175.6660
2999.999956 90.573 -176.1356
3021.739192 90.556 -176.5984
3043.635960 90.537 -177.0530
3065.691401 90.516 -177.4996
3087.906665 90.494 -177.9398
3110.282909 90.471 -178.3747
3132.821301 90.448 -178.8046
3155.523016 90.424 -179.2297
3178.389237 90.399 -179.6508
3201.421155 90.373 179.9310
3224.619973 90.346 179.5147
3247.986898 90.319 179.0996
3271.523150 90.292 178.6867
3295.229956 90.265 178.2760
3319.108550 90.238 177.8655
3343.160179 90.210 177.4543
3367.386096 90.181 177.0425
3391.787563 90.152 176.6307
3416.365854 90.121 176.2193
3441.122250 90.089 175.8086
3466.058040 90.056 175.3979
3491.174525 90.024 174.9861
3516.473015 89.990 174.5711
3541.954828 89.956 174.1520
3567.621293 89.921 173.7296
3593.473747 89.884 173.3047
3619.513539 89.845 172.8783
3645.742027 89.805 172.4500
3672.160576 89.763 172.0174
3698.770566 89.719 171.5787
3725.573382 89.674 171.1349
3752.570422 89.626 170.6889
3779.763094 89.577 170.2423
3807.152816 89.526 169.7936
3834.741015 89.473 169.3413
3862.529129 89.417 168.8853
3890.518607 89.358 168.4275
3918.710909 89.296 167.9688
3947.107503 89.231 167.5110
3975.709871 89.162 167.0557
4004.519504 89.088 166.6045
4033.537903 89.011 166.1593
4062.766581 88.929 165.7230
4092.207063 88.842 165.3001
4121.860882 88.751 164.8965
4151.729585 88.655 164.5178
4181.814729 88.554 164.1677
4212.117883 88.449 163.8506
4242.640625 88.341 163.5712
4273.384548 88.231 163.3318
4304.351254 88.120 163.1308
4335.542358 88.008 162.9637
4366.959485 87.897 162.8284
4398.604273 87.787 162.7248
4430.478373 87.677 162.6512
4462.583446 87.568 162.6012
4494.921165 87.460 162.5664
4527.493217 87.352 162.5443
4560.301299 87.245 162.5384
4593.347122 87.137 162.5510
4626.632409 87.029 162.5814
4660.158894 86.920 162.6284
4693.928327 86.810 162.6926
4727.942466 86.698 162.7753
4762.203086 86.585 162.8788
4796.711973 86.471 163.0056
4831.470925 86.355 163.1583
4866.481755 86.238 163.3387
4901.746288 86.120 163.5481
4937.266362 86.001 163.7881
4973.043830 85.881 164.0628
5009.080555 85.759 164.3753
5045.378418 85.637 164.7263
5081.939310 85.515 165.1169
5118.765137 85.393 165.5503
5155.857819 85.272 166.0303
5193.219290 85.153 166.5598
5230.851498 85.037 167.1390
5268.756404 84.923 167.7664
5306.935985 84.813 168.4399
5345.392231 84.709 169.1560
5384.127146 84.610 169.9104
5423.142751 84.516 170.6976
5462.441079 84.428 171.5127
5502.024179 84.347 172.3536
5541.894114 84.271 173.2177
5582.052963 84.201 174.1018
5622.502820 84.137 175.0004
5663.245793 84.077 175.9086
5704.284007 84.023 176.8259
5745.619600 83.975 177.7537
5787.254728 83.932 178.6934
5829.191562 83.895 179.6458
5871.432287 83.862 -179.3900
5913.979105 83.833 -178.4174
5956.834236 83.810 -177.4381
5999.999912 83.792 -176.4523
6043.478385 83.779 -175.4573
6087.271921 83.772 -174.4521
6131.382802 83.770 -173.4381
6175.813330 83.773 -172.4177
6220.565819 83.781 -171.3900
6265.642603 83.794 -170.3538
6311.046032 83.814 -169.3084
6356.778473 83.840 -168.2532
6402.842310 83.874 -167.1873
6449.239945 83.915 -166.1092
6495.973796 83.964 -165.0209
6543.046300 84.022 -163.9221
6590.459911 84.090 -162.8092
6638.217100 84.171 -161.6848
6686.320358 84.266 -160.5553
6734.772191 84.376 -159.4301
6783.575127 84.504 -158.3225
6832.731709 84.650 -157.2490
6882.244499 84.815 -156.2285
6932.116080 85.001 -155.2785
6982.349051 85.208 -154.4209
7032.946030 85.436 -153.6869
7083.909656 85.683 -153.1075
7135.242586 85.947 -152.7087
7186.947495 86.227 -152.5182
7239.027079 86.518 -152.5677
7291.484053 86.816 -152.8839
7344.321152 87.115 -153.4889
7397.541131 87.406 -154.3990
7451.146763 87.681 -155.6164
7505.140844 87.932 -157.1292
7559.526189 88.151 -158.9114
7614.305632 88.333 -160.9212
7669.482029 88.473 -163.1133
7725.058258 88.568 -165.4493
7781.037214 88.614 -167.8848
7837.421817 88.609 -170.3658
7894.215007 88.553 -172.8375
7951.419743 88.448 -175.2449
8009.039008 88.297 -177.5370
8067.075806 88.106 -179.6755
8125.533163 87.882 178.3673
8184.414126 87.630 176.6087
8243.721764 87.355 175.0515
8303.459170 87.060 173.6926
8363.629458 86.748 172.5372
8424.235765 86.421 171.5946
8485.281250 86.083 170.8741
8546.769096 85.738 170.3851
8608.702508 85.391 170.1315
8671.084715 85.047 170.1062
8733.918969 84.712 170.2817
8797.208547 84.387 170.6299
8860.956746 84.072 171.1407
8925.166891 83.768 171.8131
8989.842330 83.477 172.6493
9054.986433 83.202 173.6437
9120.602598 82.947 174.7744
9186.694244 82.711 176.0146
9253.264817 82.495 177.3484
9320.317788 82.299 178.7715
9387.856653 82.125 -179.7213
9455.884932 81.974 -178.1403
9524.406173 81.846 -176.4962
9593.423946 81.743 -174.7970
9662.941850 81.665 -173.0508
9732.963510 81.613 -171.2712
9803.492576 81.587 -169.4742
9874.532725 81.588 -167.6708
9946.087659 81.618 -165.8663
10018.161110 81.676 -164.0686
10090.756835 81.764 -162.2876
10163.878619 81.885 -160.5327
10237.530273 82.040 -158.8210
10311.715638 82.234 -157.1882
10386.438580 82.469 -155.6866
10461.702996 82.743 -154.3598
10537.512808 83.055 -153.2363
10613.871970 83.403 -152.3496
10690.784461 83.789 -151.7466
10768.254293 84.209 -151.4870
10846.285502 84.660 -151.6451
10924.882158 85.134 -152.3051
11004.048358 85.619 -153.5498
11083.788228 86.099 -155.4518
11164.105927 86.548 -158.0586
11245.005640 86.940 -161.3731
11326.491587 87.245 -165.3375
11408.568014 87.436 -169.8232
11491.239200 87.492 -174.6365
11574.509457 87.401 -179.5380
11658.383123 87.166 175.7283
11742.864573 86.799 171.3980
11827.958211 86.323 167.6518
11913.668472 85.768 164.6006
11999.999825 85.163 162.2852
12086.956770 84.534 160.6862
12174.543841 83.905 159.7447
12262.765605 83.292 159.3827
12351.626659 82.708 159.5141
12441.131638 82.161 160.0544
12531.285206 81.655 160.9279
12622.092064 81.193 162.0641
12713.556946 80.775 163.3973
12805.684621 80.402 164.8727
12898.479890 80.075 166.4434
12991.947593 79.794 168.0557
13086.092601 79.558 169.6421
13180.919822 79.358 171.1410
13276.434201 79.188 172.5317
13372.640716 79.041 173.8297
13469.544383 78.919 175.0369
13567.150254 78.822 176.1204
13665.463417 78.750 177.0352
13764.488998 78.696 177.7414
13864.232160 78.656 178.1999
13964.698101 78.620 178.3815
14065.892060 78.578 178.2802
14167.819312 78.516 177.9139
14270.485171 78.422 177.3304
14373.894990 78.291 176.6063
14478.054158 78.118 175.8339
14582.968107 77.905 175.1113
14688.642305 77.658 174.5329
14795.082262 77.388 174.1802
14902.293527 77.113 174.1099
15010.281689 76.854 174.3254
15119.052378 76.636 174.7585
15228.611264 76.475 175.2734
15338.964058 76.378 175.6836
15450.116515 76.340 175.7949
15562.074428 76.343 175.4564
15674.843635 76.362 174.6099
15788.430013 76.373 173.2874
15902.839485 76.362 171.5433
16018.078016 76.322 169.4065
16134.151612 76.245 166.8846
16251.066326 76.123 163.9838
16368.828251 75.942 160.7132
16487.443528 75.688 157.0995
16606.918341 75.342 153.2139
16727.258917 74.886 149.1705
16848.471530 74.307 145.1204
16970.562500 73.599 141.2459
17093.538192 72.763 137.7439
17217.405016 71.807 134.8016
17342.169430 70.750 132.5726
17467.837939 69.613 131.1628
17594.417093 68.419 130.6091
17721.913492 67.191 130.9065
17850.333783 65.951 132.0259
17979.684660 64.722 133.8951
18109.972866 63.519 136.3985
18241.205195 62.345 139.3945
18373.388487 61.190 142.7780
18506.529634 60.036 146.5629
18640.635577 58.867 150.8817
18775.713306 57.680 156.0294
18911.769865 56.502 162.4513
19048.812345 55.418 170.2429
19186.847892 54.500 178.6674
19325.883701 53.736 -173.1552
19465.927021 53.068 -165.4121
19606.985152 52.466 -157.8842
19749.065449 51.945 -150.5411
19892.175318 51.549 -143.9051
20036.322221 51.341 -139.4722
