* Measurement data measured by REW V5.40 beta 105
* Source: Microphone (USB Multi-Channel Audio Device), MICROPHONE (Master Volume), L, volume: 0.500
* Format: 256k Log Swept Sine, 1 sweep at -6.0 dBFS with no timing reference
* Dated: Jan 7, 2026 9:47:38 AM
* REW Settings:
*  C-weighting compensation: Off
*  Target level: 75.0 dB
* Note: ; 
* Measurement: GK Kunten L Sample 2
* Smoothing: 1/24 octave
* Frequency Step: 96 ppo
* Start Frequency: 20.0 Hz
*
* Freq(Hz) SPL(dB) Phase(degrees)
19.995176 93.147 36.3332
20.140070 93.154 35.8759
20.286013 93.160 35.4195
20.433014 93.166 34.9641
20.581080 93.171 34.5094
20.730219 93.177 34.0557
20.880438 93.181 33.6028
21.031747 93.186 33.1508
21.184151 93.190 32.6996
21.337660 93.193 32.2493
21.492282 93.196 31.7997
21.648024 93.199 31.3508
21.804894 93.201 30.9027
21.962902 93.203 30.4554
22.122054 93.205 30.0088
22.282359 93.205 29.5631
22.443827 93.206 29.1184
22.606464 93.205 28.6749
22.770280 93.204 28.2329
22.935282 93.203 27.7925
23.101481 93.201 27.3544
23.268884 93.198 26.9187
23.437500 93.194 26.4861
23.607337 93.190 26.0571
23.778406 93.185 25.6323
23.950714 93.179 25.2122
24.124271 93.173 24.7972
24.299085 93.167 24.3879
24.475166 93.160 23.9847
24.652524 93.153 23.5875
24.831166 93.146 23.1965
25.011103 93.139 22.8116
25.192344 93.132 22.4324
25.374898 93.125 22.0583
25.558775 93.119 21.6888
25.743984 93.113 21.3230
25.930536 93.107 20.9600
26.118439 93.103 20.5986
26.307704 93.099 20.2382
26.498340 93.095 19.8776
26.690358 93.092 19.5161
26.883768 93.089 19.1531
27.078578 93.086 18.7880
27.274801 93.083 18.4205
27.472445 93.080 18.0505
27.671522 93.077 17.6783
27.872041 93.074 17.3039
28.074014 93.070 16.9277
28.277450 93.066 16.5504
28.482360 93.061 16.1723
28.688755 93.056 15.7942
28.896645 93.050 15.4164
29.106042 93.043 15.0398
29.316956 93.036 14.6646
29.529399 93.028 14.2914
29.743381 93.020 13.9205
29.958914 93.012 13.5522
30.176009 93.002 13.1868
30.394677 92.993 12.8243
30.614929 92.983 12.4650
30.836777 92.973 12.1089
31.060233 92.962 11.7561
31.285309 92.952 11.4065
31.512015 92.941 11.0599
31.740364 92.930 10.7164
31.970368 92.918 10.3758
32.202038 92.907 10.0378
32.435387 92.895 9.7021
32.670428 92.884 9.3687
32.907171 92.873 9.0369
33.145630 92.861 8.7065
33.385817 92.850 8.3773
33.627744 92.839 8.0488
33.871425 92.827 7.7208
34.116871 92.816 7.3929
34.364096 92.805 7.0650
34.613112 92.793 6.7368
34.863933 92.781 6.4084
35.116572 92.769 6.0797
35.371041 92.757 5.7507
35.627354 92.744 5.4216
35.885524 92.731 5.0928
36.145566 92.718 4.7643
36.407491 92.704 4.4366
36.671315 92.690 4.1098
36.937051 92.675 3.7842
37.204712 92.660 3.4601
37.474312 92.645 3.1375
37.745867 92.629 2.8165
38.019389 92.613 2.4973
38.294893 92.597 2.1797
38.572393 92.580 1.8636
38.851905 92.563 1.5492
39.133442 92.546 1.2362
39.417019 92.529 0.9248
39.702651 92.511 0.6149
39.990353 92.493 0.3068
40.280139 92.474 0.0004
40.572026 92.455 -0.3038
40.866027 92.436 -0.6057
41.162159 92.417 -0.9053
41.460437 92.397 -1.2021
41.760877 92.377 -1.4965
42.063493 92.357 -1.7884
42.368303 92.337 -2.0779
42.675321 92.317 -2.3654
42.984564 92.297 -2.6512
43.296048 92.277 -2.9357
43.609789 92.256 -3.2189
43.925803 92.236 -3.5013
44.244108 92.215 -3.7830
44.564719 92.194 -4.0637
44.887653 92.173 -4.3433
45.212928 92.151 -4.6213
45.540559 92.130 -4.8976
45.870565 92.107 -5.1718
46.202962 92.085 -5.4435
46.537767 92.063 -5.7125
46.874999 92.040 -5.9791
47.214675 92.017 -6.2434
47.556812 91.994 -6.5057
47.901428 91.971 -6.7664
48.248542 91.948 -7.0259
48.598170 91.925 -7.2842
48.950333 91.902 -7.5415
49.305047 91.878 -7.7975
49.662332 91.854 -8.0521
50.022206 91.830 -8.3047
50.384687 91.805 -8.5549
50.749795 91.780 -8.8024
51.117549 91.755 -9.0471
51.487968 91.730 -9.2888
51.861071 91.704 -9.5277
52.236878 91.679 -9.7642
52.615408 91.654 -9.9987
52.996681 91.628 -10.2316
53.380716 91.603 -10.4633
53.767535 91.578 -10.6941
54.157157 91.552 -10.9241
54.549602 91.527 -11.1536
54.944891 91.501 -11.3821
55.343044 91.475 -11.6097
55.744083 91.449 -11.8359
56.148027 91.422 -12.0607
56.554899 91.396 -12.2837
56.964719 91.369 -12.5048
57.377509 91.342 -12.7240
57.793290 91.315 -12.9413
58.212084 91.287 -13.1567
58.633913 91.259 -13.3702
59.058798 91.231 -13.5817
59.486763 91.203 -13.7908
59.917828 91.175 -13.9976
60.352018 91.146 -14.2017
60.789353 91.118 -14.4033
61.229858 91.089 -14.6023
61.673555 91.060 -14.7988
62.120467 91.032 -14.9927
62.570617 91.003 -15.1841
63.024030 90.974 -15.3733
63.480728 90.946 -15.5608
63.940735 90.918 -15.7472
64.404076 90.890 -15.9332
64.870775 90.862 -16.1193
65.340855 90.834 -16.3055
65.814342 90.805 -16.4915
66.291260 90.776 -16.6763
66.771634 90.747 -16.8587
67.255488 90.717 -17.0380
67.742849 90.687 -17.2133
68.233742 90.657 -17.3845
68.728192 90.626 -17.5519
69.226225 90.596 -17.7161
69.727866 90.566 -17.8779
70.233143 90.537 -18.0383
70.742082 90.507 -18.1981
71.254708 90.477 -18.3577
71.771049 90.448 -18.5176
72.291131 90.418 -18.6774
72.814983 90.387 -18.8368
73.342630 90.357 -18.9950
73.874101 90.326 -19.1509
74.409423 90.294 -19.3035
74.948625 90.262 -19.4521
75.491733 90.230 -19.5967
76.038777 90.199 -19.7377
76.589786 90.167 -19.8762
77.144787 90.135 -20.0134
77.703810 90.104 -20.1505
78.266884 90.073 -20.2877
78.834038 90.041 -20.4247
79.405302 90.008 -20.5605
79.980705 89.976 -20.6938
80.560278 89.943 -20.8236
81.144051 89.910 -20.9492
81.732055 89.876 -21.0708
82.324319 89.843 -21.1887
82.920875 89.810 -21.3040
83.521754 89.778 -21.4172
84.126987 89.745 -21.5293
84.736605 89.713 -21.6406
85.350642 89.680 -21.7518
85.969128 89.647 -21.8629
86.592096 89.615 -21.9739
87.219578 89.581 -22.0837
87.851607 89.547 -22.1912
88.488216 89.513 -22.2947
89.129438 89.478 -22.3931
89.775306 89.443 -22.4859
90.425855 89.409 -22.5734
91.081118 89.374 -22.6565
91.741129 89.340 -22.7363
92.405924 89.305 -22.8138
93.075535 89.271 -22.8896
93.749999 89.238 -22.9647
94.429350 89.204 -23.0408
95.113624 89.170 -23.1206
95.802856 89.135 -23.2057
96.497083 89.098 -23.2938
97.196341 89.060 -23.3776
97.900666 89.020 -23.4472
98.610094 88.979 -23.4977
99.324664 88.941 -23.5351
100.044411 88.906 -23.5773
100.769374 88.872 -23.6459
101.499591 88.837 -23.7527
102.235098 88.795 -23.8902
102.975936 88.746 -24.0320
103.722142 88.687 -24.1434
104.473756 88.623 -24.1957
105.230815 88.557 -24.1762
105.993361 88.493 -24.0891
106.761433 88.435 -23.9500
107.535070 88.384 -23.7780
108.314314 88.340 -23.5912
109.099204 88.302 -23.4021
109.889782 88.267 -23.2142
110.686088 88.236 -23.0212
111.488165 88.206 -22.8109
112.296055 88.181 -22.5728
113.109798 88.163 -22.3074
113.929438 88.155 -22.0294
114.755018 88.158 -21.7665
115.586580 88.170 -21.5483
116.424168 88.190 -21.3948
117.267826 88.213 -21.3105
118.117597 88.237 -21.2915
118.973525 88.259 -21.3339
119.835657 88.280 -21.4367
120.704035 88.295 -21.5980
121.578706 88.303 -21.8090
122.459716 88.302 -22.0530
123.347109 88.292 -22.3088
124.240933 88.273 -22.5556
125.141234 88.248 -22.7786
126.048059 88.219 -22.9713
126.961456 88.187 -23.1346
127.881471 88.154 -23.2725
128.808153 88.120 -23.3885
129.741550 88.085 -23.4849
130.681710 88.051 -23.5630
131.628684 88.017 -23.6268
132.582520 87.983 -23.6832
133.543267 87.951 -23.7386
134.510977 87.918 -23.7946
135.485699 87.884 -23.8470
136.467484 87.849 -23.8893
137.456384 87.814 -23.9164
138.452449 87.779 -23.9292
139.455733 87.746 -23.9318
140.466286 87.715 -23.9287
141.484163 87.684 -23.9219
142.509416 87.656 -23.9120
143.542098 87.628 -23.9001
144.582263 87.601 -23.8886
145.629965 87.575 -23.8798
146.685260 87.548 -23.8743
147.748202 87.522 -23.8717
148.818846 87.494 -23.8690
149.897249 87.465 -23.8621
150.983466 87.434 -23.8464
152.077555 87.404 -23.8201
153.179572 87.373 -23.7843
154.289574 87.343 -23.7430
155.407620 87.314 -23.7004
156.533767 87.285 -23.6596
157.668076 87.256 -23.6222
158.810603 87.226 -23.5876
159.961411 87.194 -23.5535
161.120557 87.159 -23.5171
162.288103 87.123 -23.4764
163.464109 87.086 -23.4293
164.648638 87.048 -23.3734
165.841750 87.011 -23.3075
167.043507 86.974 -23.2335
168.253973 86.939 -23.1555
169.473211 86.905 -23.0779
170.701284 86.871 -23.0034
171.938256 86.838 -22.9319
173.184191 86.804 -22.8616
174.439155 86.770 -22.7899
175.703213 86.736 -22.7152
176.976431 86.702 -22.6368
178.258875 86.668 -22.5546
179.550613 86.633 -22.4668
180.851710 86.600 -22.3722
182.162236 86.567 -22.2716
183.482259 86.535 -22.1686
184.811847 86.504 -22.0664
186.151070 86.474 -21.9675
187.499997 86.445 -21.8723
188.858700 86.415 -21.7797
190.227248 86.385 -21.6879
191.605713 86.355 -21.5952
192.994167 86.324 -21.5001
194.392682 86.294 -21.4004
195.801331 86.264 -21.2950
197.220189 86.235 -21.1846
198.649327 86.207 -21.0709
200.088822 86.181 -20.9576
201.538748 86.157 -20.8488
202.999181 86.134 -20.7463
204.470197 86.111 -20.6493
205.951872 86.088 -20.5544
207.444284 86.064 -20.4586
208.947511 86.040 -20.3593
210.461631 86.016 -20.2545
211.986723 85.992 -20.1426
213.522866 85.968 -20.0225
215.070141 85.944 -19.8944
216.628627 85.922 -19.7620
218.198408 85.901 -19.6306
219.779563 85.882 -19.5049
221.372177 85.862 -19.3867
222.976331 85.843 -19.2753
224.592109 85.824 -19.1680
226.219596 85.804 -19.0620
227.858877 85.784 -18.9547
229.510036 85.764 -18.8447
231.173160 85.743 -18.7314
232.848336 85.722 -18.6147
234.535651 85.702 -18.4956
236.235193 85.682 -18.3763
237.947051 85.663 -18.2604
239.671313 85.644 -18.1499
241.408071 85.624 -18.0449
243.157413 85.604 -17.9423
244.919432 85.583 -17.8364
246.694219 85.561 -17.7230
248.481867 85.538 -17.6008
250.282469 85.514 -17.4698
252.096119 85.490 -17.3322
253.922911 85.466 -17.1917
255.762941 85.443 -17.0516
257.616305 85.420 -16.9142
259.483099 85.398 -16.7811
261.363421 85.376 -16.6517
263.257368 85.354 -16.5228
265.165039 85.331 -16.3913
267.086534 85.307 -16.2546
269.021953 85.284 -16.1104
270.971397 85.260 -15.9566
272.934968 85.236 -15.7947
274.912767 85.214 -15.6288
276.904898 85.193 -15.4634
278.911465 85.173 -15.3010
280.932573 85.154 -15.1432
282.968326 85.135 -14.9901
285.018831 85.117 -14.8409
287.084195 85.097 -14.6936
289.164526 85.077 -14.5447
291.259931 85.056 -14.3903
293.370520 85.034 -14.2284
295.496404 85.012 -14.0609
297.637693 84.991 -13.8906
299.794498 84.972 -13.7190
301.966933 84.953 -13.5472
304.155110 84.936 -13.3764
306.359143 84.919 -13.2069
308.579148 84.902 -13.0391
310.815239 84.884 -12.8721
313.067535 84.865 -12.7039
315.336151 84.845 -12.5331
317.621207 84.825 -12.3588
319.922821 84.805 -12.1804
322.241114 84.786 -11.9990
324.576206 84.768 -11.8149
326.928219 84.751 -11.6285
329.297275 84.736 -11.4410
331.683499 84.721 -11.2540
334.087014 84.706 -11.0681
336.507947 84.691 -10.8839
338.946422 84.675 -10.7019
341.402567 84.659 -10.5206
343.876511 84.641 -10.3384
346.368382 84.624 -10.1543
348.878310 84.606 -9.9670
351.406426 84.590 -9.7744
353.952862 84.575 -9.5756
356.517750 84.562 -9.3724
359.101225 84.549 -9.1689
361.703421 84.537 -8.9694
364.324473 84.524 -8.7750
366.964518 84.510 -8.5830
369.623694 84.495 -8.3906
372.302140 84.479 -8.1968
374.999995 84.463 -8.0012
377.717399 84.448 -7.8023
380.454495 84.433 -7.5979
383.211425 84.420 -7.3862
385.988333 84.409 -7.1683
388.785364 84.398 -6.9492
391.602663 84.389 -6.7351
394.440377 84.378 -6.5280
397.298655 84.366 -6.3256
400.177644 84.353 -6.1249
403.077497 84.340 -5.9240
405.998362 84.326 -5.7202
408.940394 84.313 -5.5104
411.903744 84.300 -5.2921
414.888569 84.289 -5.0656
417.895022 84.279 -4.8327
420.923262 84.270 -4.5970
423.973445 84.261 -4.3635
427.045732 84.252 -4.1359
430.140281 84.242 -3.9163
433.257255 84.232 -3.7040
436.396816 84.220 -3.4950
439.559127 84.209 -3.2825
442.744354 84.199 -3.0618
445.952662 84.190 -2.8329
449.184218 84.182 -2.5978
452.439192 84.174 -2.3563
455.717753 84.166 -2.1094
459.020072 84.159 -1.8620
462.346321 84.151 -1.6182
465.696673 84.143 -1.3821
469.071303 84.134 -1.1550
472.470387 84.125 -0.9332
475.894102 84.116 -0.7089
479.342627 84.107 -0.4756
482.816141 84.100 -0.2302
486.314826 84.093 0.0255
489.838864 84.088 0.2865
493.388438 84.083 0.5488
496.963734 84.078 0.8091
500.564938 84.073 1.0623
504.192238 84.069 1.3071
507.845823 84.063 1.5461
511.525883 84.057 1.7834
515.232610 84.051 2.0243
518.966198 84.045 2.2731
522.726841 84.040 2.5337
526.514735 84.035 2.8059
530.330078 84.032 3.0850
534.173068 84.028 3.3654
538.043907 84.025 3.6432
541.942795 84.022 3.9174
545.869936 84.018 4.1864
549.825534 84.015 4.4482
553.809797 84.012 4.7054
557.822931 84.009 4.9647
561.865146 84.006 5.2313
565.936652 84.004 5.5088
570.037662 84.003 5.7970
574.168390 84.002 6.0912
578.329051 84.001 6.3882
582.519862 84.001 6.6835
586.741041 84.001 6.9724
590.992808 84.002 7.2540
595.275386 84.002 7.5297
599.588997 84.003 7.8027
603.933866 84.004 8.0787
608.310219 84.004 8.3640
612.718286 84.005 8.6625
617.158295 84.006 8.9749
621.630479 84.008 9.2969
626.135069 84.011 9.6213
630.672302 84.014 9.9421
635.242414 84.017 10.2545
639.845642 84.021 10.5562
644.482227 84.026 10.8488
649.152411 84.031 11.1373
653.856437 84.037 11.4286
658.594551 84.042 11.7311
663.366998 84.048 12.0501
668.174029 84.054 12.3833
673.015893 84.060 12.7233
677.892844 84.066 13.0645
682.805135 84.074 13.4008
687.753022 84.082 13.7244
692.736764 84.091 14.0337
697.756620 84.099 14.3339
702.812853 84.107 14.6340
707.905724 84.113 14.9443
713.035501 84.119 15.2731
718.202450 84.125 15.6242
723.406841 84.133 15.9980
728.648945 84.142 16.3904
733.929036 84.153 16.7902
739.247388 84.167 17.1847
744.604279 84.183 17.5663
749.999989 84.200 17.9345
755.434798 84.218 18.2926
760.908990 84.237 18.6439
766.422850 84.256 18.9940
771.976666 84.275 19.3522
777.570727 84.294 19.7256
783.205325 84.314 20.1121
788.880754 84.334 20.5061
794.597309 84.355 20.9020
800.355289 84.377 21.2917
806.154993 84.401 21.6704
811.996725 84.425 22.0391
817.880788 84.450 22.3998
823.807489 84.476 22.7570
829.777138 84.502 23.1175
835.790045 84.530 23.4858
841.846524 84.558 23.8659
847.946891 84.586 24.2570
854.091464 84.615 24.6528
860.280562 84.645 25.0480
866.514510 84.677 25.4355
872.793631 84.710 25.8103
879.118254 84.746 26.1722
885.488707 84.783 26.5254
891.905323 84.821 26.8764
898.368437 84.860 27.2312
904.878385 84.900 27.5919
911.435507 84.940 27.9579
918.040144 84.982 28.3278
924.692641 85.024 28.6975
931.393345 85.067 29.0614
938.142606 85.112 29.4157
944.940774 85.160 29.7578
951.788204 85.210 30.0855
958.685254 85.261 30.4009
965.632282 85.312 30.7083
972.629652 85.364 31.0132
979.677727 85.416 31.3199
986.776876 85.469 31.6286
993.927468 85.523 31.9364
1001.129876 85.577 32.2408
1008.384476 85.632 32.5375
1015.691645 85.689 32.8214
1023.051766 85.747 33.0888
1030.465221 85.808 33.3366
1037.932396 85.869 33.5677
1045.453682 85.932 33.7898
1053.029471 85.994 34.0083
1060.660156 86.056 34.2265
1068.346137 86.117 34.4453
1076.087813 86.177 34.6616
1083.885589 86.238 34.8719
1091.739871 86.298 35.0728
1099.651068 86.360 35.2598
1107.619593 86.422 35.4308
1115.645861 86.486 35.5859
1123.730291 86.550 35.7277
1131.873304 86.615 35.8600
1140.075325 86.679 35.9858
1148.336780 86.742 36.1096
1156.658102 86.804 36.2354
1165.039724 86.864 36.3632
1173.482082 86.925 36.4893
1181.985617 86.985 36.6070
1190.550772 87.045 36.7119
1199.177993 87.106 36.8043
1207.867731 87.168 36.8844
1216.620439 87.229 36.9550
1225.436572 87.291 37.0194
1234.316591 87.353 37.0807
1243.260957 87.414 37.1444
1252.270139 87.475 37.2130
1261.344604 87.537 37.2848
1270.484827 87.599 37.3566
1279.691284 87.662 37.4225
1288.964455 87.726 37.4783
1298.304823 87.790 37.5226
1307.712874 87.856 37.5568
1317.189101 87.922 37.5850
1326.733996 87.988 37.6118
1336.348058 88.053 37.6416
1346.031787 88.117 37.6771
1355.785688 88.179 37.7177
1365.610270 88.240 37.7608
1375.506045 88.301 37.8021
1385.473529 88.363 37.8386
1395.513241 88.425 37.8664
1405.625705 88.489 37.8835
1415.811448 88.555 37.8932
1426.071002 88.621 37.8986
1436.404900 88.687 37.9049
1446.813682 88.752 37.9161
1457.297890 88.815 37.9322
1467.858072 88.877 37.9519
1478.494776 88.939 37.9724
1489.208559 89.000 37.9897
1499.999978 89.063 38.0012
1510.869596 89.127 38.0046
1521.817980 89.193 37.9983
1532.845701 89.260 37.9827
1543.953332 89.328 37.9610
1555.141455 89.396 37.9378
1566.410651 89.464 37.9173
1577.761508 89.530 37.9002
1589.194618 89.594 37.8841
1600.710578 89.656 37.8661
1612.309986 89.717 37.8430
1623.993449 89.776 37.8121
1635.761575 89.837 37.7720
1647.614978 89.898 37.7212
1659.554275 89.962 37.6581
1671.580089 90.026 37.5836
1683.693048 90.091 37.5009
1695.893782 90.154 37.4135
1708.182927 90.217 37.3254
1720.561125 90.279 37.2374
1733.029020 90.340 37.1485
1745.587263 90.401 37.0542
1758.236508 90.462 36.9480
1770.977414 90.526 36.8262
1783.810646 90.591 36.6870
1796.736874 90.658 36.5313
1809.756770 90.726 36.3639
1822.871013 90.793 36.1900
1836.080288 90.859 36.0125
1849.385283 90.924 35.8310
1862.786691 90.987 35.6435
1876.285211 91.049 35.4474
1889.881547 91.111 35.2395
1903.576408 91.173 35.0167
1917.370507 91.237 34.7764
1931.264564 91.302 34.5184
1945.259304 91.368 34.2434
1959.355454 91.434 33.9536
1973.553752 91.500 33.6518
1987.854936 91.563 33.3405
2002.259752 91.625 33.0213
2016.768952 91.686 32.6935
2031.383291 91.745 32.3553
2046.103531 91.804 32.0046
2060.930441 91.863 31.6382
2075.864793 91.922 31.2531
2090.907365 91.981 30.8485
2106.058941 92.040 30.4261
2121.320313 92.099 29.9894
2136.692274 92.155 29.5407
2152.175627 92.208 29.0837
2167.771179 92.258 28.6205
2183.479742 92.304 28.1499
2199.302137 92.346 27.6708
2215.239187 92.387 27.1817
2231.291723 92.427 26.6801
2247.460582 92.466 26.1647
2263.746608 92.504 25.6346
2280.150649 92.542 25.0906
2296.673561 92.577 24.5371
2313.316204 92.610 23.9785
2330.079447 92.638 23.4183
2346.964163 92.662 22.8590
2363.971233 92.681 22.3010
2381.101543 92.697 21.7444
2398.355986 92.709 21.1885
2415.735463 92.720 20.6301
2433.240878 92.730 20.0659
2450.873144 92.740 19.4953
2468.633181 92.750 18.9194
2486.521915 92.757 18.3412
2504.540278 92.760 17.7645
2522.689209 92.760 17.1929
2540.969655 92.754 16.6295
2559.382568 92.743 16.0742
2577.928909 92.729 15.5262
2596.609645 92.712 14.9850
2615.425749 92.693 14.4495
2634.378202 92.673 13.9205
2653.467992 92.653 13.3984
2672.696115 92.632 12.8845
2692.063573 92.609 12.3820
2711.571376 92.584 11.8933
2731.220539 92.555 11.4209
2751.012089 92.524 10.9645
2770.947057 92.490 10.5242
2791.026482 92.453 10.0995
2811.251410 92.415 9.6876
2831.622897 92.379 9.2849
2852.142003 92.343 8.8860
2872.809800 92.308 8.4905
2893.627364 92.272 8.1033
2914.595781 92.235 7.7297
2935.716143 92.196 7.3757
2956.989553 92.155 7.0429
2978.417118 92.110 6.7313
2999.999956 92.063 6.4410
3021.739192 92.015 6.1699
3043.635960 91.967 5.9146
3065.691401 91.921 5.6703
3087.906665 91.878 5.4349
3110.282909 91.837 5.2085
3132.821301 91.799 4.9930
3155.523016 91.761 4.7899
3178.389237 91.724 4.6010
3201.421155 91.685 4.4292
3224.619973 91.644 4.2760
3247.986898 91.603 4.1389
3271.523150 91.562 4.0118
3295.229956 91.522 3.8912
3319.108550 91.485 3.7751
3343.160179 91.451 3.6639
3367.386096 91.420 3.5594
3391.787563 91.392 3.4615
3416.365854 91.365 3.3715
3441.122250 91.337 3.2902
3466.058040 91.310 3.2167
3491.174525 91.281 3.1508
3516.473015 91.252 3.0919
3541.954828 91.223 3.0408
3567.621293 91.196 2.9971
3593.473747 91.172 2.9577
3619.513539 91.151 2.9209
3645.742027 91.133 2.8866
3672.160576 91.117 2.8554
3698.770566 91.103 2.8317
3725.573382 91.089 2.8209
3752.570422 91.075 2.8238
3779.763094 91.061 2.8407
3807.152816 91.048 2.8726
3834.741015 91.037 2.9170
3862.529129 91.032 2.9712
3890.518607 91.033 3.0274
3918.710909 91.043 3.0748
3947.107503 91.060 3.1034
3975.709871 91.084 3.0999
4004.519504 91.113 3.0547
4033.537903 91.142 2.9601
4062.766581 91.169 2.8118
4092.207063 91.194 2.6094
4121.860882 91.216 2.3535
4151.729585 91.233 2.0492
4181.814729 91.247 1.7007
4212.117883 91.257 1.3145
4242.640625 91.266 0.8960
4273.384548 91.271 0.4512
4304.351254 91.273 -0.0110
4335.542358 91.270 -0.4869
4366.959485 91.260 -0.9703
4398.604273 91.244 -1.4586
4430.478373 91.221 -1.9530
4462.583446 91.192 -2.4536
4494.921165 91.157 -2.9644
4527.493217 91.119 -3.4849
4560.301299 91.077 -4.0128
4593.347122 91.033 -4.5447
4626.632409 90.986 -5.0754
4660.158894 90.935 -5.6026
4693.928327 90.878 -6.1210
4727.942466 90.814 -6.6261
4762.203086 90.742 -7.1156
4796.711973 90.663 -7.5874
4831.470925 90.578 -8.0409
4866.481755 90.487 -8.4750
4901.746288 90.393 -8.8897
4937.266362 90.297 -9.2851
4973.043830 90.199 -9.6592
5009.080555 90.101 -10.0088
5045.378418 90.001 -10.3297
5081.939310 89.898 -10.6173
5118.765137 89.790 -10.8668
5155.857819 89.677 -11.0750
5193.219290 89.557 -11.2385
5230.851498 89.434 -11.3550
5268.756404 89.307 -11.4228
5306.935985 89.178 -11.4401
5345.392231 89.050 -11.4077
5384.127146 88.922 -11.3247
5423.142751 88.796 -11.1896
5462.441079 88.670 -11.0027
5502.024179 88.545 -10.7650
5541.894114 88.421 -10.4797
5582.052963 88.296 -10.1511
5622.502820 88.170 -9.7808
5663.245793 88.044 -9.3662
5704.284007 87.919 -8.9060
5745.619600 87.795 -8.4003
5787.254728 87.674 -7.8473
5829.191562 87.556 -7.2432
5871.432287 87.442 -6.5816
5913.979105 87.331 -5.8580
5956.834236 87.224 -5.0698
5999.999912 87.120 -4.2141
6043.478385 87.021 -3.2907
6087.271921 86.928 -2.3024
6131.382802 86.842 -1.2525
6175.813330 86.766 -0.1464
6220.565819 86.702 1.0099
6265.642603 86.653 2.2109
6311.046032 86.621 3.4454
6356.778473 86.604 4.7000
6402.842310 86.603 5.9659
6449.239945 86.616 7.2360
6495.973796 86.641 8.5037
6543.046300 86.677 9.7616
6590.459911 86.723 11.0026
6638.217100 86.779 12.2312
6686.320358 86.848 13.4605
6734.772191 86.934 14.6882
6783.575127 87.041 15.8912
6832.731709 87.169 17.0454
6882.244499 87.316 18.1362
6932.116080 87.480 19.1591
6982.349051 87.661 20.1071
7032.946030 87.857 20.9707
7083.909656 88.070 21.7379
7135.242586 88.298 22.3894
7186.947495 88.544 22.9059
7239.027079 88.808 23.2644
7291.484053 89.089 23.4340
7344.321152 89.387 23.3862
7397.541131 89.699 23.0920
7451.146763 90.022 22.5219
7505.140844 90.349 21.6487
7559.526189 90.674 20.4463
7614.305632 90.989 18.8927
7669.482029 91.286 16.9718
7725.058258 91.553 14.6746
7781.037214 91.781 12.0052
7837.421817 91.959 8.9874
7894.215007 92.074 5.6725
7951.419743 92.116 2.1373
8009.039008 92.077 -1.5237
8067.075806 91.951 -5.2036
8125.533163 91.739 -8.7899
8184.414126 91.449 -12.1807
8243.721764 91.087 -15.2906
8303.459170 90.664 -18.0535
8363.629458 90.194 -20.4258
8424.235765 89.689 -22.3839
8485.281250 89.162 -23.9270
8546.769096 88.625 -25.0731
8608.702508 88.087 -25.8510
8671.084715 87.554 -26.2891
8733.918969 87.032 -26.4083
8797.208547 86.522 -26.2294
8860.956746 86.029 -25.7803
8925.166891 85.554 -25.0906
8989.842330 85.100 -24.1906
9054.986433 84.667 -23.1097
9120.602598 84.259 -21.8745
9186.694244 83.876 -20.5061
9253.264817 83.519 -19.0175
9320.317788 83.190 -17.4165
9387.856653 82.890 -15.7142
9455.884932 82.622 -13.9320
9524.406173 82.385 -12.1147
9593.423946 82.177 -10.3225
9662.941850 81.989 -8.5958
9732.963510 81.810 -6.9198
9803.492576 81.634 -5.2263
9874.532725 81.464 -3.4450
9946.087659 81.309 -1.5490
10018.161110 81.178 0.4474
10090.756835 81.074 2.5177
10163.878619 81.002 4.6337
10237.530273 80.962 6.7692
10311.715638 80.953 8.9028
10386.438580 80.974 11.0204
10461.702996 81.026 13.1130
10537.512808 81.109 15.1619
10613.871970 81.226 17.1451
10690.784461 81.380 19.0429
10768.254293 81.574 20.8276
10846.285502 81.811 22.4644
10924.882158 82.093 23.9099
11004.048358 82.420 25.1114
11083.788228 82.790 26.0101
11164.105927 83.202 26.5375
11245.005640 83.649 26.6093
11326.491587 84.123 26.1288
11408.568014 84.612 24.9972
11491.239200 85.096 23.1249
11574.509457 85.551 20.4514
11658.383123 85.946 16.9631
11742.864573 86.247 12.7169
11827.958211 86.420 7.8552
11913.668472 86.439 2.6017
11999.999825 86.290 -2.7585
12086.956770 85.973 -7.9200
12174.543841 85.504 -12.6083
12262.765605 84.910 -16.6172
12351.626659 84.226 -19.8279
12441.131638 83.493 -22.2061
12531.285206 82.751 -23.7821
12622.092064 82.030 -24.6315
12713.556946 81.346 -24.8472
12805.684621 80.706 -24.5233
12898.479890 80.112 -23.7527
12991.947593 79.565 -22.6223
13086.092601 79.062 -21.2032
13180.919822 78.601 -19.5530
13276.434201 78.180 -17.7124
13372.640716 77.798 -15.7105
13469.544383 77.454 -13.5747
13567.150254 77.154 -11.3365
13665.463417 76.899 -9.0514
13764.488998 76.692 -6.7924
13864.232160 76.528 -4.6206
13964.698101 76.397 -2.5740
14065.892060 76.287 -0.6523
14167.819312 76.185 1.1970
14270.485171 76.087 3.0842
14373.894990 76.003 5.1544
14478.054158 75.959 7.5157
14582.968107 76.000 10.1443
14688.642305 76.165 12.8007
14795.082262 76.470 15.0454
14902.293527 76.887 16.4267
15010.281689 77.357 16.6965
15119.052378 77.823 15.8557
15228.611264 78.240 14.0414
15338.964058 78.581 11.4183
15450.116515 78.826 8.1356
15562.074428 78.961 4.3307
15674.843635 78.974 0.1556
15788.430013 78.860 -4.2133
15902.839485 78.625 -8.5792
16018.078016 78.282 -12.7446
16134.151612 77.848 -16.5389
16251.066326 77.342 -19.8364
16368.828251 76.781 -22.5587
16487.443528 76.181 -24.6776
16606.918341 75.557 -26.2113
16727.258917 74.926 -27.2076
16848.471530 74.297 -27.7351
16970.562500 73.679 -27.8822
17093.538192 73.075 -27.7415
17217.405016 72.485 -27.3935
17342.169430 71.902 -26.9092
17467.837939 71.323 -26.3317
17594.417093 70.736 -25.6737
17721.913492 70.133 -24.9185
17850.333783 69.504 -24.0365
17979.684660 68.844 -22.9908
18109.972866 68.148 -21.7319
18241.205195 67.414 -20.2230
18373.388487 66.642 -18.4135
18506.529634 65.834 -16.2355
18640.635577 64.990 -13.6333
18775.713306 64.116 -10.5316
18911.769865 63.222 -6.8613
19048.812345 62.321 -2.5760
19186.847892 61.431 2.3463
19325.883701 60.569 7.8527
19465.927021 59.747 13.8671
19606.985152 58.980 20.3325
19749.065449 58.309 27.0193
19892.175318 57.800 33.2712
20036.322221 57.531 37.4825
