* Measurement data measured by REW V5.40 beta 105
* Source: Microphone (USB Multi-Channel Audio Device), MICROPHONE (Master Volume), L, volume: 0.500
* Format: 256k Log Swept Sine, 1 sweep at -6.0 dBFS with no timing reference
* Dated: Nov 20, 2025 10:42:21 PM
* REW Settings:
*  C-weighting compensation: Off
*  Target level: 75.0 dB
* Note: ; 
* Measurement: Kunten R Radius Deepmounts
* Smoothing: 1/24 octave
* Frequency Step: 96 ppo
* Start Frequency: 20.0 Hz
*
* Freq(Hz) SPL(dB) Phase(degrees)
19.995176 93.262 -132.3547
20.140070 93.276 -132.8621
20.286013 93.291 -133.3690
20.433014 93.304 -133.8754
20.581080 93.318 -134.3814
20.730219 93.331 -134.8869
20.880438 93.344 -135.3921
21.031747 93.356 -135.8969
21.184151 93.368 -136.4013
21.337660 93.379 -136.9052
21.492282 93.390 -137.4087
21.648024 93.400 -137.9116
21.804894 93.410 -138.4138
21.962902 93.420 -138.9152
22.122054 93.428 -139.4158
22.282359 93.437 -139.9155
22.443827 93.445 -140.4141
22.606464 93.452 -140.9116
22.770280 93.459 -141.4078
22.935282 93.466 -141.9028
23.101481 93.472 -142.3966
23.268884 93.477 -142.8890
23.437500 93.482 -143.3801
23.607337 93.487 -143.8699
23.778406 93.491 -144.3584
23.950714 93.495 -144.8457
24.124271 93.499 -145.3319
24.299085 93.502 -145.8169
24.475166 93.504 -146.3007
24.652524 93.507 -146.7834
24.831166 93.508 -147.2649
25.011103 93.510 -147.7451
25.192344 93.511 -148.2240
25.374898 93.511 -148.7015
25.558775 93.511 -149.1774
25.743984 93.510 -149.6515
25.930536 93.509 -150.1237
26.118439 93.508 -150.5939
26.307704 93.506 -151.0619
26.498340 93.503 -151.5275
26.690358 93.501 -151.9906
26.883768 93.498 -152.4512
27.078578 93.494 -152.9093
27.274801 93.491 -153.3649
27.472445 93.487 -153.8181
27.671522 93.482 -154.2691
27.872041 93.478 -154.7179
28.074014 93.474 -155.1649
28.277450 93.469 -155.6102
28.482360 93.464 -156.0541
28.688755 93.459 -156.4968
28.896645 93.454 -156.9385
29.106042 93.449 -157.3794
29.316956 93.443 -157.8196
29.529399 93.437 -158.2592
29.743381 93.431 -158.6982
29.958914 93.424 -159.1366
30.176009 93.417 -159.5741
30.394677 93.410 -160.0108
30.614929 93.402 -160.4463
30.836777 93.394 -160.8804
31.060233 93.386 -161.3131
31.285309 93.377 -161.7439
31.512015 93.367 -162.1728
31.740364 93.357 -162.5995
31.970368 93.347 -163.0240
32.202038 93.336 -163.4462
32.435387 93.326 -163.8660
32.670428 93.315 -164.2836
32.907171 93.303 -164.6989
33.145630 93.292 -165.1120
33.385817 93.280 -165.5232
33.627744 93.268 -165.9324
33.871425 93.255 -166.3399
34.116871 93.243 -166.7456
34.364096 93.230 -167.1497
34.613112 93.217 -167.5523
34.863933 93.204 -167.9533
35.116572 93.190 -168.3526
35.371041 93.176 -168.7503
35.627354 93.162 -169.1462
35.885524 93.147 -169.5403
36.145566 93.133 -169.9324
36.407491 93.117 -170.3223
36.671315 93.102 -170.7100
36.937051 93.086 -171.0954
37.204712 93.070 -171.4782
37.474312 93.054 -171.8585
37.745867 93.037 -172.2361
38.019389 93.021 -172.6110
38.294893 93.004 -172.9833
38.572393 92.987 -173.3529
38.851905 92.970 -173.7200
39.133442 92.952 -174.0848
39.417019 92.935 -174.4474
39.702651 92.918 -174.8080
39.990353 92.901 -175.1668
40.280139 92.883 -175.5242
40.572026 92.866 -175.8803
40.866027 92.848 -176.2354
41.162159 92.831 -176.5898
41.460437 92.813 -176.9436
41.760877 92.795 -177.2970
42.063493 92.777 -177.6501
42.368303 92.759 -178.0029
42.675321 92.740 -178.3553
42.984564 92.721 -178.7072
43.296048 92.701 -179.0585
43.609789 92.682 -179.4089
43.925803 92.661 -179.7581
44.244108 92.641 179.8942
44.564719 92.619 179.5483
44.887653 92.597 179.2046
45.212928 92.575 178.8635
45.540559 92.552 178.5254
45.870565 92.529 178.1906
46.202962 92.506 177.8595
46.537767 92.482 177.5322
46.874999 92.457 177.2087
47.214675 92.433 176.8889
47.556812 92.409 176.5724
47.901428 92.384 176.2593
48.248542 92.359 175.9492
48.598170 92.334 175.6425
48.950333 92.309 175.3392
49.305047 92.284 175.0396
49.662332 92.258 174.7437
50.022206 92.233 174.4510
50.384687 92.208 174.1609
50.749795 92.184 173.8724
51.117549 92.159 173.5840
51.487968 92.135 173.2950
51.861071 92.110 173.0051
52.236878 92.085 172.7147
52.615408 92.060 172.4250
52.996681 92.034 172.1374
53.380716 92.007 171.8530
53.767535 91.981 171.5724
54.157157 91.954 171.2952
54.549602 91.927 171.0201
54.944891 91.901 170.7457
55.343044 91.874 170.4708
55.744083 91.847 170.1953
56.148027 91.820 169.9201
56.554899 91.791 169.6477
56.964719 91.762 169.3807
57.377509 91.732 169.1218
57.793290 91.701 168.8719
58.212084 91.672 168.6309
58.633913 91.643 168.3961
59.058798 91.615 168.1641
59.486763 91.589 167.9311
59.917828 91.562 167.6940
60.352018 91.536 167.4517
60.789353 91.509 167.2055
61.229858 91.481 166.9587
61.673555 91.452 166.7160
62.120467 91.421 166.4817
62.570617 91.391 166.2581
63.024030 91.361 166.0451
63.480728 91.333 165.8393
63.940735 91.305 165.6354
64.404076 91.280 165.4278
64.870775 91.255 165.2119
65.340855 91.230 164.9859
65.814342 91.204 164.7509
66.291260 91.177 164.5102
66.771634 91.148 164.2683
67.255488 91.118 164.0298
67.742849 91.086 163.7979
68.233742 91.053 163.5745
68.728192 91.020 163.3601
69.226225 90.987 163.1541
69.727866 90.954 162.9550
70.233143 90.922 162.7611
70.742082 90.890 162.5705
71.254708 90.859 162.3813
71.771049 90.828 162.1920
72.291131 90.797 162.0018
72.814983 90.766 161.8103
73.342630 90.735 161.6181
73.874101 90.703 161.4261
74.409423 90.671 161.2357
74.948625 90.639 161.0478
75.491733 90.606 160.8632
76.038777 90.573 160.6823
76.589786 90.540 160.5048
77.144787 90.506 160.3308
77.703810 90.473 160.1599
78.266884 90.439 159.9920
78.834038 90.406 159.8270
79.405302 90.372 159.6649
79.980705 90.338 159.5059
80.560278 90.304 159.3499
81.144051 90.270 159.1971
81.732055 90.236 159.0474
82.324319 90.202 158.9005
82.920875 90.168 158.7562
83.521754 90.134 158.6146
84.126987 90.100 158.4755
84.736605 90.066 158.3389
85.350642 90.032 158.2046
85.969128 89.998 158.0719
86.592096 89.964 157.9403
87.219578 89.930 157.8093
87.851607 89.896 157.6787
88.488216 89.861 157.5491
89.129438 89.826 157.4212
89.775306 89.791 157.2960
90.425855 89.755 157.1746
91.081118 89.719 157.0584
91.741129 89.682 156.9483
92.405924 89.646 156.8444
93.075535 89.610 156.7459
93.749999 89.574 156.6514
94.429350 89.539 156.5594
95.113624 89.505 156.4690
95.802856 89.470 156.3798
96.497083 89.436 156.2915
97.196341 89.401 156.2040
97.900666 89.367 156.1169
98.610094 89.333 156.0300
99.324664 89.299 155.9438
100.044411 89.264 155.8593
100.769374 89.229 155.7772
101.499591 89.195 155.6978
102.235098 89.160 155.6203
102.975936 89.125 155.5443
103.722142 89.090 155.4695
104.473756 89.055 155.3965
105.230815 89.019 155.3262
105.993361 88.983 155.2593
106.761433 88.947 155.1965
107.535070 88.911 155.1384
108.314314 88.874 155.0850
109.099204 88.837 155.0364
109.889782 88.801 154.9924
110.686088 88.764 154.9523
111.488165 88.727 154.9160
112.296055 88.690 154.8843
113.109798 88.653 154.8582
113.929438 88.616 154.8387
114.755018 88.579 154.8261
115.586580 88.542 154.8190
116.424168 88.506 154.8152
117.267826 88.471 154.8121
118.117597 88.435 154.8077
118.973525 88.399 154.8028
119.835657 88.363 154.8006
120.704035 88.326 154.8057
121.578706 88.289 154.8215
122.459716 88.253 154.8475
123.347109 88.218 154.8797
124.240933 88.185 154.9133
125.141234 88.153 154.9453
126.048059 88.121 154.9754
126.961456 88.090 155.0055
127.881471 88.059 155.0380
128.808153 88.028 155.0756
129.741550 87.998 155.1206
130.681710 87.968 155.1738
131.628684 87.941 155.2343
132.582520 87.915 155.2993
133.543267 87.891 155.3654
134.510977 87.869 155.4282
135.485699 87.849 155.4829
136.467484 87.831 155.5251
137.456384 87.814 155.5521
138.452449 87.796 155.5628
139.455733 87.779 155.5579
140.466286 87.759 155.5402
141.484163 87.738 155.5151
142.509416 87.715 155.4893
143.542098 87.691 155.4676
144.582263 87.667 155.4512
145.629965 87.642 155.4378
146.685260 87.618 155.4241
147.748202 87.594 155.4076
148.818846 87.570 155.3868
149.897249 87.546 155.3618
150.983466 87.521 155.3340
152.077555 87.495 155.3056
153.179572 87.468 155.2792
154.289574 87.439 155.2573
155.407620 87.410 155.2421
156.533767 87.381 155.2343
157.668076 87.351 155.2335
158.810603 87.321 155.2387
159.961411 87.291 155.2487
161.120557 87.261 155.2624
162.288103 87.232 155.2780
163.464109 87.202 155.2935
164.648638 87.172 155.3080
165.841750 87.142 155.3217
167.043507 87.111 155.3359
168.253973 87.080 155.3515
169.473211 87.048 155.3694
170.701284 87.015 155.3900
171.938256 86.983 155.4145
173.184191 86.950 155.4438
174.439155 86.917 155.4780
175.703213 86.884 155.5165
176.976431 86.851 155.5588
178.258875 86.818 155.6050
179.550613 86.786 155.6556
180.851710 86.753 155.7108
182.162236 86.720 155.7706
183.482259 86.687 155.8340
184.811847 86.655 155.8997
186.151070 86.622 155.9668
187.499997 86.590 156.0350
188.858700 86.558 156.1049
190.227248 86.526 156.1767
191.605713 86.494 156.2503
192.994167 86.463 156.3251
194.392682 86.432 156.4009
195.801331 86.401 156.4784
197.220189 86.371 156.5582
198.649327 86.341 156.6400
200.088822 86.312 156.7234
201.538748 86.283 156.8088
202.999181 86.254 156.8969
204.470197 86.225 156.9891
205.951872 86.196 157.0864
207.444284 86.167 157.1892
208.947511 86.138 157.2980
210.461631 86.109 157.4135
211.986723 86.080 157.5356
213.522866 86.052 157.6639
215.070141 86.024 157.7973
216.628627 85.997 157.9341
218.198408 85.970 158.0724
219.779563 85.944 158.2102
221.372177 85.919 158.3467
222.976331 85.895 158.4821
224.592109 85.872 158.6155
226.219596 85.849 158.7454
227.858877 85.827 158.8713
229.510036 85.806 158.9925
231.173160 85.785 159.1086
232.848336 85.764 159.2204
234.535651 85.743 159.3285
236.235193 85.722 159.4330
237.947051 85.700 159.5353
239.671313 85.678 159.6370
241.408071 85.656 159.7393
243.157413 85.633 159.8432
244.919432 85.610 159.9490
246.694219 85.585 160.0576
248.481867 85.561 160.1707
250.282469 85.536 160.2885
252.096119 85.511 160.4099
253.922911 85.486 160.5345
255.762941 85.461 160.6617
257.616305 85.436 160.7900
259.483099 85.411 160.9196
261.363421 85.386 161.0529
263.257368 85.361 161.1904
265.165039 85.338 161.3296
267.086534 85.315 161.4684
269.021953 85.293 161.6081
270.971397 85.271 161.7506
272.934968 85.250 161.8953
274.912767 85.230 162.0400
276.904898 85.211 162.1843
278.911465 85.192 162.3300
280.932573 85.174 162.4784
282.968326 85.157 162.6281
285.018831 85.140 162.7763
287.084195 85.123 162.9223
289.164526 85.106 163.0685
291.259931 85.089 163.2174
293.370520 85.071 163.3658
295.496404 85.053 163.5084
297.637693 85.035 163.6450
299.794498 85.015 163.7832
301.966933 84.994 163.9286
304.155110 84.975 164.0769
306.359143 84.956 164.2173
308.579148 84.936 164.3464
310.815239 84.914 164.4749
313.067535 84.892 164.6166
315.336151 84.871 164.7723
317.621207 84.852 164.9282
319.922821 84.834 165.0720
322.241114 84.815 165.2082
324.576206 84.794 165.3525
326.928219 84.774 165.5123
329.297275 84.755 165.6778
331.683499 84.738 165.8345
334.087014 84.721 165.9789
336.507947 84.702 166.1206
338.946422 84.682 166.2725
341.402567 84.661 166.4408
343.876511 84.641 166.6219
346.368382 84.622 166.8077
348.878310 84.603 166.9936
351.406426 84.585 167.1788
353.952862 84.566 167.3621
356.517750 84.548 167.5415
359.101225 84.530 167.7181
361.703421 84.511 167.8958
364.324473 84.493 168.0772
366.964518 84.475 168.2615
369.623694 84.458 168.4456
372.302140 84.441 168.6280
374.999995 84.425 168.8107
377.717399 84.409 168.9958
380.454495 84.394 169.1826
383.211425 84.379 169.3705
385.988333 84.365 169.5599
388.785364 84.350 169.7504
391.602663 84.336 169.9406
394.440377 84.322 170.1312
397.298655 84.306 170.3257
400.177644 84.291 170.5250
403.077497 84.277 170.7252
405.998362 84.263 170.9221
408.940394 84.249 171.1166
411.903744 84.235 171.3138
414.888569 84.220 171.5179
417.895022 84.205 171.7299
420.923262 84.190 171.9459
423.973445 84.176 172.1595
427.045732 84.163 172.3661
430.140281 84.150 172.5669
433.257255 84.136 172.7675
436.396816 84.123 172.9730
439.559127 84.109 173.1854
442.744354 84.096 173.4037
445.952662 84.084 173.6239
449.184218 84.074 173.8415
452.439192 84.064 174.0540
455.717753 84.053 174.2625
459.020072 84.042 174.4700
462.346321 84.031 174.6793
465.696673 84.019 174.8909
469.071303 84.008 175.1058
472.470387 83.997 175.3248
475.894102 83.987 175.5484
479.342627 83.978 175.7746
482.816141 83.969 176.0008
486.314826 83.960 176.2252
489.838864 83.951 176.4477
493.388438 83.941 176.6702
496.963734 83.931 176.8956
500.564938 83.920 177.1237
504.192238 83.909 177.3529
507.845823 83.900 177.5849
511.525883 83.891 177.8235
515.232610 83.883 178.0682
518.966198 83.875 178.3146
522.726841 83.867 178.5587
526.514735 83.859 178.7993
530.330078 83.849 179.0361
534.173068 83.840 179.2703
538.043907 83.832 179.5050
541.942795 83.824 179.7448
545.869936 83.818 179.9914
549.825534 83.813 -179.7580
553.809797 83.809 -179.5065
557.822931 83.804 -179.2557
561.865146 83.799 -179.0066
565.936652 83.793 -178.7587
570.037662 83.787 -178.5120
574.168390 83.781 -178.2653
578.329051 83.776 -178.0152
582.519862 83.771 -177.7590
586.741041 83.768 -177.4985
590.992808 83.765 -177.2378
595.275386 83.762 -176.9784
599.588997 83.758 -176.7198
603.933866 83.753 -176.4620
608.310219 83.748 -176.2082
612.718286 83.743 -175.9579
617.158295 83.737 -175.7046
621.630479 83.732 -175.4420
626.135069 83.727 -175.1701
630.672302 83.723 -174.8922
635.242414 83.720 -174.6122
639.845642 83.716 -174.3331
644.482227 83.712 -174.0564
649.152411 83.708 -173.7837
653.856437 83.705 -173.5182
658.594551 83.703 -173.2629
663.366998 83.700 -173.0138
668.174029 83.697 -172.7607
673.015893 83.693 -172.4978
677.892844 83.690 -172.2326
682.805135 83.686 -171.9787
687.753022 83.679 -171.7433
692.736764 83.668 -171.5270
697.756620 83.650 -171.3266
702.812853 83.620 -171.1264
707.905724 83.577 -170.8828
713.035501 83.522 -170.5200
718.202450 83.466 -169.9690
723.406841 83.424 -169.2387
728.648945 83.404 -168.4237
733.929036 83.407 -167.6214
739.247388 83.424 -166.8698
744.604279 83.449 -166.1598
749.999989 83.480 -165.4755
755.434798 83.520 -164.8123
760.908990 83.568 -164.1768
766.422850 83.625 -163.5824
771.976666 83.688 -163.0443
777.570727 83.756 -162.5757
783.205325 83.824 -162.1805
788.880754 83.890 -161.8514
794.597309 83.951 -161.5734
800.355289 84.008 -161.3308
806.154993 84.060 -161.1082
811.996725 84.108 -160.8925
817.880788 84.152 -160.6769
823.807489 84.194 -160.4577
829.777138 84.232 -160.2331
835.790045 84.269 -160.0038
841.846524 84.303 -159.7712
847.946891 84.336 -159.5347
854.091464 84.368 -159.2925
860.280562 84.400 -159.0422
866.514510 84.432 -158.7817
872.793631 84.465 -158.5125
879.118254 84.499 -158.2384
885.488707 84.533 -157.9618
891.905323 84.567 -157.6834
898.368437 84.602 -157.4037
904.878385 84.639 -157.1240
911.435507 84.677 -156.8472
918.040144 84.717 -156.5748
924.692641 84.757 -156.3055
931.393345 84.797 -156.0362
938.142606 84.838 -155.7659
944.940774 84.880 -155.4970
951.788204 84.924 -155.2333
958.685254 84.970 -154.9755
965.632282 85.015 -154.7221
972.629652 85.061 -154.4727
979.677727 85.107 -154.2262
986.776876 85.155 -153.9818
993.927468 85.203 -153.7409
1001.129876 85.252 -153.5051
1008.384476 85.302 -153.2736
1015.691645 85.352 -153.0473
1023.051766 85.403 -152.8297
1030.465221 85.455 -152.6230
1037.932396 85.509 -152.4263
1045.453682 85.563 -152.2384
1053.029471 85.619 -152.0596
1060.660156 85.675 -151.8911
1068.346137 85.731 -151.7302
1076.087813 85.788 -151.5732
1083.885589 85.844 -151.4200
1091.739871 85.901 -151.2739
1099.651068 85.958 -151.1387
1107.619593 86.015 -151.0155
1115.645861 86.071 -150.9015
1123.730291 86.126 -150.7940
1131.873304 86.181 -150.6924
1140.075325 86.235 -150.5946
1148.336780 86.288 -150.4994
1156.658102 86.341 -150.4087
1165.039724 86.394 -150.3277
1173.482082 86.446 -150.2599
1181.985617 86.498 -150.2019
1190.550772 86.550 -150.1470
1199.177993 86.602 -150.0952
1207.867731 86.653 -150.0506
1216.620439 86.704 -150.0110
1225.436572 86.754 -149.9704
1234.316591 86.804 -149.9275
1243.260957 86.855 -149.8895
1252.270139 86.906 -149.8643
1261.344604 86.959 -149.8520
1270.484827 87.011 -149.8465
1279.691284 87.064 -149.8450
1288.964455 87.116 -149.8469
1298.304823 87.167 -149.8504
1307.712874 87.217 -149.8513
1317.189101 87.265 -149.8476
1326.733996 87.312 -149.8428
1336.348058 87.357 -149.8420
1346.031787 87.403 -149.8479
1355.785688 87.448 -149.8585
1365.610270 87.492 -149.8721
1375.506045 87.536 -149.8903
1385.473529 87.579 -149.9130
1395.513241 87.622 -149.9359
1405.625705 87.664 -149.9547
1415.811448 87.706 -149.9693
1426.071002 87.747 -149.9836
1436.404900 87.789 -150.0013
1446.813682 87.832 -150.0246
1457.297890 87.876 -150.0541
1467.858072 87.922 -150.0896
1478.494776 87.967 -150.1295
1489.208559 88.014 -150.1727
1499.999978 88.060 -150.2176
1510.869596 88.107 -150.2632
1521.817980 88.154 -150.3101
1532.845701 88.200 -150.3583
1543.953332 88.245 -150.4070
1555.141455 88.290 -150.4565
1566.410651 88.334 -150.5081
1577.761508 88.377 -150.5627
1589.194618 88.420 -150.6220
1600.710578 88.463 -150.6874
1612.309986 88.505 -150.7574
1623.993449 88.546 -150.8293
1635.761575 88.587 -150.9023
1647.614978 88.629 -150.9771
1659.554275 88.670 -151.0548
1671.580089 88.710 -151.1365
1683.693048 88.752 -151.2238
1695.893782 88.794 -151.3180
1708.182927 88.837 -151.4188
1720.561125 88.881 -151.5247
1733.029020 88.925 -151.6349
1745.587263 88.970 -151.7495
1758.236508 89.016 -151.8692
1770.977414 89.062 -151.9942
1783.810646 89.108 -152.1246
1796.736874 89.154 -152.2596
1809.756770 89.199 -152.3992
1822.871013 89.244 -152.5451
1836.080288 89.288 -152.6989
1849.385283 89.332 -152.8606
1862.786691 89.375 -153.0293
1876.285211 89.417 -153.2033
1889.881547 89.459 -153.3817
1903.576408 89.499 -153.5648
1917.370507 89.538 -153.7523
1931.264564 89.576 -153.9441
1945.259304 89.613 -154.1428
1959.355454 89.650 -154.3504
1973.553752 89.687 -154.5663
1987.854936 89.724 -154.7897
2002.259752 89.760 -155.0219
2016.768952 89.797 -155.2634
2031.383291 89.832 -155.5126
2046.103531 89.868 -155.7677
2060.930441 89.903 -156.0284
2075.864793 89.937 -156.2948
2090.907365 89.971 -156.5674
2106.058941 90.003 -156.8479
2121.320313 90.035 -157.1374
2136.692274 90.065 -157.4348
2152.175627 90.094 -157.7358
2167.771179 90.122 -158.0360
2183.479742 90.148 -158.3335
2199.302137 90.174 -158.6296
2215.239187 90.199 -158.9287
2231.291723 90.222 -159.2336
2247.460582 90.244 -159.5444
2263.746608 90.264 -159.8598
2280.150649 90.283 -160.1786
2296.673561 90.300 -160.4994
2313.316204 90.315 -160.8207
2330.079447 90.329 -161.1423
2346.964163 90.341 -161.4640
2363.971233 90.352 -161.7841
2381.101543 90.361 -162.1015
2398.355986 90.369 -162.4149
2415.735463 90.376 -162.7229
2433.240878 90.382 -163.0237
2450.873144 90.386 -163.3150
2468.633181 90.390 -163.5963
2486.521915 90.393 -163.8684
2504.540278 90.397 -164.1308
2522.689209 90.400 -164.3829
2540.969655 90.405 -164.6236
2559.382568 90.410 -164.8541
2577.928909 90.417 -165.0797
2596.609645 90.426 -165.3058
2615.425749 90.437 -165.5336
2634.378202 90.450 -165.7641
2653.467992 90.466 -166.0052
2672.696115 90.484 -166.2672
2692.063573 90.503 -166.5552
2711.571376 90.521 -166.8677
2731.220539 90.539 -167.2016
2751.012089 90.554 -167.5537
2770.947057 90.568 -167.9214
2791.026482 90.579 -168.3012
2811.251410 90.588 -168.6885
2831.622897 90.594 -169.0793
2852.142003 90.597 -169.4713
2872.809800 90.598 -169.8624
2893.627364 90.596 -170.2489
2914.595781 90.592 -170.6291
2935.716143 90.587 -171.0029
2956.989553 90.580 -171.3712
2978.417118 90.572 -171.7355
2999.999956 90.564 -172.0962
3021.739192 90.555 -172.4522
3043.635960 90.546 -172.8017
3065.691401 90.536 -173.1446
3087.906665 90.526 -173.4825
3110.282909 90.516 -173.8179
3132.821301 90.506 -174.1532
3155.523016 90.496 -174.4892
3178.389237 90.487 -174.8264
3201.421155 90.478 -175.1653
3224.619973 90.469 -175.5072
3247.986898 90.460 -175.8541
3271.523150 90.451 -176.2062
3295.229956 90.442 -176.5625
3319.108550 90.431 -176.9234
3343.160179 90.420 -177.2894
3367.386096 90.408 -177.6597
3391.787563 90.396 -178.0333
3416.365854 90.382 -178.4097
3441.122250 90.367 -178.7906
3466.058040 90.351 -179.1781
3491.174525 90.335 -179.5728
3516.473015 90.318 -179.9731
3541.954828 90.299 179.6214
3567.621293 90.280 179.2079
3593.473747 90.260 178.7842
3619.513539 90.238 178.3505
3645.742027 90.215 177.9085
3672.160576 90.191 177.4590
3698.770566 90.164 177.0007
3725.573382 90.135 176.5325
3752.570422 90.105 176.0552
3779.763094 90.074 175.5698
3807.152816 90.040 175.0756
3834.741015 90.004 174.5729
3862.529129 89.964 174.0642
3890.518607 89.921 173.5507
3918.710909 89.874 173.0323
3947.107503 89.823 172.5100
3975.709871 89.767 171.9865
4004.519504 89.707 171.4656
4033.537903 89.641 170.9510
4062.766581 89.569 170.4471
4092.207063 89.491 169.9594
4121.860882 89.408 169.4924
4151.729585 89.320 169.0490
4181.814729 89.228 168.6331
4212.117883 89.132 168.2469
4242.640625 89.033 167.8908
4273.384548 88.932 167.5639
4304.351254 88.829 167.2643
4335.542358 88.725 166.9901
4366.959485 88.619 166.7390
4398.604273 88.512 166.5097
4430.478373 88.404 166.3019
4462.583446 88.294 166.1146
4494.921165 88.181 165.9470
4527.493217 88.067 165.8010
4560.301299 87.949 165.6804
4593.347122 87.827 165.5871
4626.632409 87.703 165.5221
4660.158894 87.575 165.4879
4693.928327 87.444 165.4857
4727.942466 87.310 165.5163
4762.203086 87.173 165.5840
4796.711973 87.033 165.6951
4831.470925 86.891 165.8523
4866.481755 86.746 166.0558
4901.746288 86.598 166.3087
4937.266362 86.449 166.6192
4973.043830 86.299 166.9963
5009.080555 86.150 167.4454
5045.378418 86.001 167.9696
5081.939310 85.853 168.5712
5118.765137 85.710 169.2529
5155.857819 85.570 170.0152
5193.219290 85.436 170.8538
5230.851498 85.308 171.7620
5268.756404 85.187 172.7346
5306.935985 85.075 173.7682
5345.392231 84.973 174.8601
5384.127146 84.880 176.0079
5423.142751 84.797 177.2084
5462.441079 84.724 178.4592
5502.024179 84.663 179.7582
5541.894114 84.615 -178.9007
5582.052963 84.582 -177.5270
5622.502820 84.565 -176.1291
5663.245793 84.564 -174.7147
5704.284007 84.581 -173.2945
5745.619600 84.617 -171.8840
5787.254728 84.671 -170.5023
5829.191562 84.744 -169.1735
5871.432287 84.833 -167.9188
5913.979105 84.937 -166.7508
5956.834236 85.051 -165.6758
5999.999912 85.175 -164.7013
6043.478385 85.304 -163.8346
6087.271921 85.435 -163.0749
6131.382802 85.566 -162.4126
6175.813330 85.693 -161.8319
6220.565819 85.816 -161.3161
6265.642603 85.933 -160.8499
6311.046032 86.045 -160.4165
6356.778473 86.152 -159.9973
6402.842310 86.255 -159.5758
6449.239945 86.358 -159.1394
6495.973796 86.464 -158.6783
6543.046300 86.576 -158.1868
6590.459911 86.701 -157.6685
6638.217100 86.844 -157.1505
6686.320358 87.009 -156.6971
6734.772191 87.192 -156.4008
6783.575127 87.379 -156.3140
6832.731709 87.555 -156.3658
6882.244499 87.723 -156.4235
6932.116080 87.901 -156.4360
6982.349051 88.100 -156.4646
7032.946030 88.324 -156.6180
7083.909656 88.565 -156.9784
7135.242586 88.816 -157.5904
7186.947495 89.068 -158.4745
7239.027079 89.315 -159.6357
7291.484053 89.548 -161.0730
7344.321152 89.764 -162.7875
7397.541131 89.954 -164.7742
7451.146763 90.113 -167.0194
7505.140844 90.232 -169.5011
7559.526189 90.305 -172.1855
7614.305632 90.326 -175.0233
7669.482029 90.288 -177.9551
7725.058258 90.189 179.0871
7781.037214 90.028 176.1793
7837.421817 89.808 173.3972
7894.215007 89.532 170.8099
7951.419743 89.207 168.4758
8009.039008 88.842 166.4395
8067.075806 88.447 164.7286
8125.533163 88.031 163.3553
8184.414126 87.602 162.3170
8243.721764 87.170 161.5961
8303.459170 86.739 161.1665
8363.629458 86.315 161.0027
8424.235765 85.903 161.0742
8485.281250 85.503 161.3492
8546.769096 85.117 161.8024
8608.702508 84.745 162.4185
8671.084715 84.387 163.1909
8733.918969 84.042 164.1121
8797.208547 83.713 165.1703
8860.956746 83.401 166.3575
8925.166891 83.107 167.6684
8989.842330 82.833 169.0943
9054.986433 82.579 170.6214
9120.602598 82.346 172.2388
9186.694244 82.135 173.9386
9253.264817 81.947 175.7142
9320.317788 81.783 177.5598
9387.856653 81.643 179.4657
9455.884932 81.529 -178.5768
9524.406173 81.440 -176.5730
9593.423946 81.377 -174.5323
9662.941850 81.343 -172.4736
9732.963510 81.339 -170.4202
9803.492576 81.363 -168.3948
9874.532725 81.415 -166.4185
9946.087659 81.491 -164.4990
10018.161110 81.590 -162.6222
10090.756835 81.714 -160.7649
10163.878619 81.868 -158.9177
10237.530273 82.059 -157.1031
10311.715638 82.291 -155.3647
10386.438580 82.567 -153.7526
10461.702996 82.888 -152.3217
10537.512808 83.253 -151.1331
10613.871970 83.660 -150.2484
10690.784461 84.106 -149.7312
10768.254293 84.586 -149.6509
10846.285502 85.093 -150.0834
10924.882158 85.616 -151.1130
11004.048358 86.138 -152.8221
11083.788228 86.635 -155.2715
11164.105927 87.081 -158.4827
11245.005640 87.442 -162.4144
11326.491587 87.689 -166.9482
11408.568014 87.795 -171.8876
11491.239200 87.746 -176.9746
11574.509457 87.540 178.0713
11658.383123 87.189 173.5104
11742.864573 86.719 169.5496
11827.958211 86.160 166.3219
11913.668472 85.545 163.8806
11999.999825 84.906 162.2098
12086.956770 84.266 161.2453
12174.543841 83.645 160.8982
12262.765605 83.054 161.0749
12351.626659 82.502 161.6833
12441.131638 81.992 162.6382
12531.285206 81.527 163.8648
12622.092064 81.110 165.3019
12713.556946 80.740 166.8926
12805.684621 80.418 168.5807
12898.479890 80.140 170.3215
12991.947593 79.906 172.0810
13086.092601 79.713 173.8256
13180.919822 79.559 175.5193
13276.434201 79.443 177.1216
13372.640716 79.361 178.5910
13469.544383 79.311 179.8935
13567.150254 79.287 -179.0050
13665.463417 79.285 -178.1366
13764.488998 79.296 -177.5250
13864.232160 79.313 -177.1827
13964.698101 79.329 -177.1085
14065.892060 79.336 -177.2919
14167.819312 79.325 -177.7117
14270.485171 79.292 -178.3285
14373.894990 79.232 -179.0878
14478.054158 79.143 -179.9266
14582.968107 79.028 179.2147
14688.642305 78.892 178.3860
14795.082262 78.746 177.6233
14902.293527 78.600 176.9353
15010.281689 78.471 176.2914
15119.052378 78.369 175.6158
15228.611264 78.302 174.7928
15338.964058 78.269 173.6912
15450.116515 78.258 172.2045
15562.074428 78.257 170.2641
15674.843635 78.250 167.8210
15788.430013 78.218 164.8400
15902.839485 78.144 161.3020
16018.078016 78.005 157.2099
16134.151612 77.779 152.6059
16251.066326 77.436 147.5809
16368.828251 76.949 142.2858
16487.443528 76.295 136.9431
16606.918341 75.462 131.8466
16727.258917 74.453 127.3134
16848.471530 73.287 123.6165
16970.562500 71.993 120.9482
17093.538192 70.607 119.4274
17217.405016 69.166 119.1175
17342.169430 67.704 120.0188
17467.837939 66.254 122.0569
17594.417093 64.841 125.1260
17721.913492 63.486 129.1454
17850.333783 62.210 134.0338
17979.684660 61.033 139.6653
18109.972866 59.971 145.8202
18241.205195 59.030 152.1631
18373.388487 58.201 158.3868
18506.529634 57.455 164.3713
18640.635577 56.749 170.1853
18775.713306 56.041 176.0524
18911.769865 55.332 -177.8088
19048.812345 54.661 -171.3608
19186.847892 54.048 -164.8320
19325.883701 53.470 -158.4881
19465.927021 52.892 -152.3256
19606.985152 52.316 -146.1905
19749.065449 51.781 -139.9927
19892.175318 51.368 -134.1849
20036.322221 51.152 -130.2298
