* Measurement data measured by REW V5.40 beta 105
* Source: Microphone (USB Multi-Channel Audio Device), MICROPHONE (Master Volume), L, volume: 0.500
* Format: 256k Log Swept Sine, 1 sweep at -6.0 dBFS with no timing reference
* Dated: Jan 7, 2026 9:48:45 AM
* REW Settings:
*  C-weighting compensation: Off
*  Target level: 75.0 dB
* Note: ; 
* Measurement: GK Kunten R Sample 2
* Smoothing: 1/24 octave
* Frequency Step: 96 ppo
* Start Frequency: 20.0 Hz
*
* Freq(Hz) SPL(dB) Phase(degrees)
19.995176 93.856 36.6093
20.140070 93.862 36.1342
20.286013 93.867 35.6591
20.433014 93.872 35.1840
20.581080 93.876 34.7083
20.730219 93.880 34.2321
20.880438 93.884 33.7550
21.031747 93.887 33.2767
21.184151 93.890 32.7971
21.337660 93.893 32.3159
21.492282 93.895 31.8330
21.648024 93.896 31.3482
21.804894 93.897 30.8616
21.962902 93.897 30.3733
22.122054 93.896 29.8835
22.282359 93.894 29.3925
22.443827 93.890 28.9012
22.606464 93.885 28.4102
22.770280 93.879 27.9205
22.935282 93.872 27.4335
23.101481 93.862 26.9504
23.268884 93.852 26.4731
23.437500 93.839 26.0032
23.607337 93.825 25.5426
23.778406 93.810 25.0930
23.950714 93.794 24.6564
24.124271 93.777 24.2340
24.299085 93.759 23.8273
24.475166 93.742 23.4369
24.652524 93.724 23.0632
24.831166 93.708 22.7058
25.011103 93.692 22.3640
25.192344 93.678 22.0361
25.374898 93.666 21.7199
25.558775 93.656 21.4129
25.743984 93.649 21.1118
25.930536 93.644 20.8136
26.118439 93.642 20.5148
26.307704 93.642 20.2120
26.498340 93.644 19.9026
26.690358 93.648 19.5842
26.883768 93.653 19.2546
27.078578 93.659 18.9131
27.274801 93.666 18.5590
27.472445 93.673 18.1924
27.671522 93.679 17.8143
27.872041 93.685 17.4260
28.074014 93.689 17.0288
28.277450 93.693 16.6248
28.482360 93.695 16.2156
28.688755 93.696 15.8033
28.896645 93.695 15.3896
29.106042 93.694 14.9760
29.316956 93.691 14.5635
29.529399 93.687 14.1533
29.743381 93.682 13.7458
29.958914 93.676 13.3417
30.176009 93.670 12.9410
30.394677 93.663 12.5437
30.614929 93.656 12.1496
30.836777 93.648 11.7586
31.060233 93.639 11.3704
31.285309 93.630 10.9847
31.512015 93.621 10.6014
31.740364 93.611 10.2202
31.970368 93.601 9.8413
32.202038 93.590 9.4647
32.435387 93.578 9.0905
32.670428 93.566 8.7191
32.907171 93.554 8.3508
33.145630 93.541 7.9860
33.385817 93.527 7.6249
33.627744 93.513 7.2677
33.871425 93.499 6.9143
34.116871 93.485 6.5645
34.364096 93.471 6.2180
34.613112 93.457 5.8740
34.863933 93.442 5.5319
35.116572 93.428 5.1909
35.371041 93.414 4.8502
35.627354 93.399 4.5094
35.885524 93.384 4.1680
36.145566 93.369 3.8262
36.407491 93.353 3.4843
36.671315 93.337 3.1429
36.937051 93.320 2.8029
37.204712 93.302 2.4653
37.474312 93.283 2.1312
37.745867 93.264 1.8013
38.019389 93.244 1.4762
38.294893 93.224 1.1560
38.572393 93.204 0.8406
38.851905 93.184 0.5294
39.133442 93.164 0.2216
39.417019 93.145 -0.0839
39.702651 93.125 -0.3878
39.990353 93.105 -0.6909
40.280139 93.086 -0.9935
40.572026 93.065 -1.2955
40.866027 93.045 -1.5966
41.162159 93.024 -1.8960
41.460437 93.003 -2.1929
41.760877 92.982 -2.4867
42.063493 92.960 -2.7766
42.368303 92.938 -3.0623
42.675321 92.915 -3.3439
42.984564 92.893 -3.6217
43.296048 92.871 -3.8964
43.609789 92.850 -4.1683
43.925803 92.828 -4.4382
44.244108 92.806 -4.7064
44.564719 92.785 -4.9728
44.887653 92.763 -5.2372
45.212928 92.741 -5.4990
45.540559 92.719 -5.7579
45.870565 92.697 -6.0132
46.202962 92.676 -6.2650
46.537767 92.654 -6.5135
46.874999 92.634 -6.7596
47.214675 92.613 -7.0046
47.556812 92.594 -7.2502
47.901428 92.575 -7.4984
48.248542 92.556 -7.7504
48.598170 92.538 -8.0076
48.950333 92.519 -8.2702
49.305047 92.500 -8.5380
49.662332 92.480 -8.8096
50.022206 92.458 -9.0830
50.384687 92.436 -9.3560
50.749795 92.412 -9.6261
51.117549 92.387 -9.8916
51.487968 92.362 -10.1512
51.861071 92.336 -10.4047
52.236878 92.311 -10.6528
52.615408 92.285 -10.8971
52.996681 92.260 -11.1392
53.380716 92.236 -11.3810
53.767535 92.211 -11.6238
54.157157 92.186 -11.8679
54.549602 92.160 -12.1128
54.944891 92.134 -12.3571
55.343044 92.107 -12.5986
55.744083 92.080 -12.8355
56.148027 92.052 -13.0659
56.554899 92.024 -13.2889
56.964719 91.996 -13.5052
57.377509 91.970 -13.7167
57.793290 91.944 -13.9261
58.212084 91.919 -14.1368
58.633913 91.895 -14.3521
59.058798 91.871 -14.5740
59.486763 91.847 -14.8031
59.917828 91.823 -15.0385
60.352018 91.797 -15.2774
60.789353 91.769 -15.5162
61.229858 91.740 -15.7511
61.673555 91.710 -15.9784
62.120467 91.679 -16.1963
62.570617 91.649 -16.4044
63.024030 91.619 -16.6044
63.480728 91.591 -16.7997
63.940735 91.563 -16.9944
64.404076 91.536 -17.1920
64.870775 91.510 -17.3951
65.340855 91.483 -17.6042
65.814342 91.456 -17.8178
66.291260 91.427 -18.0325
66.771634 91.397 -18.2443
67.255488 91.365 -18.4493
67.742849 91.333 -18.6450
68.233742 91.301 -18.8303
68.728192 91.269 -19.0064
69.226225 91.238 -19.1759
69.727866 91.208 -19.3422
70.233143 91.179 -19.5090
70.742082 91.150 -19.6793
71.254708 91.122 -19.8542
71.771049 91.093 -20.0338
72.291131 91.063 -20.2159
72.814983 91.032 -20.3976
73.342630 91.000 -20.5749
73.874101 90.968 -20.7446
74.409423 90.935 -20.9048
74.948625 90.902 -21.0558
75.491733 90.870 -21.1998
76.038777 90.839 -21.3407
76.589786 90.809 -21.4829
77.144787 90.780 -21.6296
77.703810 90.751 -21.7827
78.266884 90.722 -21.9417
78.834038 90.691 -22.1044
79.405302 90.659 -22.2681
79.980705 90.626 -22.4296
80.560278 90.592 -22.5856
81.144051 90.557 -22.7332
81.732055 90.521 -22.8700
82.324319 90.485 -22.9954
82.920875 90.451 -23.1106
83.521754 90.417 -23.2192
84.126987 90.385 -23.3264
84.736605 90.354 -23.4374
85.350642 90.324 -23.5560
85.969128 90.294 -23.6833
86.592096 90.262 -23.8176
87.219578 90.229 -23.9545
87.851607 90.195 -24.0886
88.488216 90.159 -24.2146
89.129438 90.122 -24.3286
89.775306 90.086 -24.4292
90.425855 90.050 -24.5179
91.081118 90.016 -24.5992
91.741129 89.983 -24.6787
92.405924 89.952 -24.7625
93.075535 89.922 -24.8550
93.749999 89.892 -24.9580
94.429350 89.861 -25.0704
95.113624 89.828 -25.1885
95.802856 89.793 -25.3069
96.497083 89.757 -25.4200
97.196341 89.718 -25.5223
97.900666 89.679 -25.6099
98.610094 89.640 -25.6808
99.324664 89.602 -25.7371
100.044411 89.566 -25.7848
100.769374 89.532 -25.8327
101.499591 89.500 -25.8895
102.235098 89.469 -25.9608
102.975936 89.437 -26.0471
103.722142 89.403 -26.1438
104.473756 89.367 -26.2437
105.230815 89.329 -26.3381
105.993361 89.289 -26.4201
106.761433 89.248 -26.4852
107.535070 89.208 -26.5329
108.314314 89.169 -26.5676
109.099204 89.133 -26.5972
109.889782 89.099 -26.6305
110.686088 89.066 -26.6741
111.488165 89.033 -26.7308
112.296055 88.998 -26.7980
113.109798 88.962 -26.8679
113.929438 88.923 -26.9312
114.755018 88.882 -26.9802
115.586580 88.841 -27.0120
116.424168 88.799 -27.0278
117.267826 88.758 -27.0315
118.117597 88.718 -27.0264
118.973525 88.678 -27.0146
119.835657 88.639 -26.9971
120.704035 88.600 -26.9743
121.578706 88.561 -26.9474
122.459716 88.522 -26.9188
123.347109 88.484 -26.8904
124.240933 88.445 -26.8610
125.141234 88.404 -26.8244
126.048059 88.364 -26.7701
126.961456 88.323 -26.6874
127.881471 88.284 -26.5695
128.808153 88.249 -26.4174
129.741550 88.220 -26.2411
130.681710 88.199 -26.0569
131.628684 88.186 -25.8845
132.582520 88.179 -25.7423
133.543267 88.177 -25.6434
134.510977 88.176 -25.5914
135.485699 88.173 -25.5793
136.467484 88.167 -25.5927
137.456384 88.158 -25.6158
138.452449 88.147 -25.6398
139.455733 88.134 -25.6640
140.466286 88.120 -25.6927
141.484163 88.105 -25.7292
142.509416 88.088 -25.7719
143.542098 88.070 -25.8167
144.582263 88.051 -25.8622
145.629965 88.031 -25.9130
146.685260 88.010 -25.9752
147.748202 87.988 -26.0503
148.818846 87.962 -26.1317
149.897249 87.933 -26.2089
150.983466 87.902 -26.2720
152.077555 87.868 -26.3142
153.179572 87.834 -26.3315
154.289574 87.801 -26.3251
155.407620 87.771 -26.3021
156.533767 87.743 -26.2740
157.668076 87.716 -26.2518
158.810603 87.689 -26.2417
159.961411 87.661 -26.2427
161.120557 87.628 -26.2485
162.288103 87.592 -26.2501
163.464109 87.553 -26.2388
164.648638 87.512 -26.2073
165.841750 87.472 -26.1537
167.043507 87.433 -26.0820
168.253973 87.398 -26.0021
169.473211 87.365 -25.9248
170.701284 87.334 -25.8600
171.938256 87.304 -25.8134
173.184191 87.273 -25.7853
174.439155 87.239 -25.7686
175.703213 87.203 -25.7528
176.976431 87.165 -25.7294
178.258875 87.125 -25.6925
179.550613 87.084 -25.6373
180.851710 87.045 -25.5610
182.162236 87.007 -25.4662
183.482259 86.972 -25.3621
184.811847 86.941 -25.2616
186.151070 86.911 -25.1765
187.499997 86.882 -25.1128
188.858700 86.852 -25.0677
190.227248 86.819 -25.0312
191.605713 86.783 -24.9907
192.994167 86.745 -24.9363
194.392682 86.706 -24.8625
195.801331 86.668 -24.7683
197.220189 86.631 -24.6555
198.649327 86.597 -24.5288
200.088822 86.566 -24.3971
201.538748 86.540 -24.2725
202.999181 86.515 -24.1658
204.470197 86.491 -24.0815
205.951872 86.466 -24.0154
207.444284 86.438 -23.9569
208.947511 86.408 -23.8932
210.461631 86.376 -23.8121
211.986723 86.343 -23.7054
213.522866 86.310 -23.5715
215.070141 86.280 -23.4160
216.628627 86.252 -23.2504
218.198408 86.228 -23.0895
219.779563 86.207 -22.9460
221.372177 86.186 -22.8265
222.976331 86.165 -22.7286
224.592109 86.142 -22.6424
226.219596 86.117 -22.5542
227.858877 86.090 -22.4512
229.510036 86.062 -22.3254
231.173160 86.034 -22.1759
232.848336 86.008 -22.0084
234.535651 85.985 -21.8337
236.235193 85.965 -21.6646
237.947051 85.947 -21.5135
239.671313 85.932 -21.3894
241.408071 85.916 -21.2928
243.157413 85.899 -21.2154
244.919432 85.878 -21.1421
246.694219 85.853 -21.0571
248.481867 85.826 -20.9495
250.282469 85.797 -20.8149
252.096119 85.767 -20.6569
253.922911 85.739 -20.4854
255.762941 85.714 -20.3132
257.616305 85.692 -20.1521
259.483099 85.672 -20.0099
261.363421 85.653 -19.8885
263.257368 85.634 -19.7826
265.165039 85.612 -19.6805
267.086534 85.588 -19.5690
269.021953 85.560 -19.4382
270.971397 85.530 -19.2844
272.934968 85.500 -19.1110
274.912767 85.471 -18.9270
276.904898 85.444 -18.7418
278.911465 85.421 -18.5625
280.932573 85.402 -18.3945
282.968326 85.384 -18.2397
285.018831 85.367 -18.0958
287.084195 85.349 -17.9584
289.164526 85.329 -17.8215
291.259931 85.304 -17.6782
293.370520 85.276 -17.5212
295.496404 85.246 -17.3468
297.637693 85.217 -17.1560
299.794498 85.190 -16.9540
301.966933 85.168 -16.7482
304.155110 85.150 -16.5457
306.359143 85.136 -16.3514
308.579148 85.123 -16.1667
310.815239 85.109 -15.9904
313.067535 85.093 -15.8198
315.336151 85.073 -15.6494
317.621207 85.050 -15.4727
319.922821 85.027 -15.2854
322.241114 85.004 -15.0881
324.576206 84.984 -14.8843
326.928219 84.969 -14.6794
329.297275 84.959 -14.4800
331.683499 84.951 -14.2921
334.087014 84.943 -14.1200
336.507947 84.933 -13.9630
338.946422 84.919 -13.8163
341.402567 84.899 -13.6729
343.876511 84.875 -13.5251
346.368382 84.849 -13.3647
348.878310 84.823 -13.1854
351.406426 84.800 -12.9870
353.952862 84.782 -12.7753
356.517750 84.769 -12.5583
359.101225 84.760 -12.3441
361.703421 84.752 -12.1387
364.324473 84.742 -11.9463
366.964518 84.728 -11.7665
369.623694 84.709 -11.5941
372.302140 84.686 -11.4219
374.999995 84.662 -11.2440
377.717399 84.639 -11.0553
380.454495 84.619 -10.8518
383.211425 84.603 -10.6311
385.988333 84.592 -10.3941
388.785364 84.584 -10.1490
391.602663 84.577 -9.9094
394.440377 84.569 -9.6877
397.298655 84.557 -9.4893
400.177644 84.541 -9.3091
403.077497 84.522 -9.1382
405.998362 84.501 -8.9657
408.940394 84.481 -8.7788
411.903744 84.463 -8.5666
414.888569 84.449 -8.3251
417.895022 84.439 -8.0597
420.923262 84.433 -7.7852
423.973445 84.428 -7.5199
427.045732 84.423 -7.2788
430.140281 84.414 -7.0692
433.257255 84.401 -6.8867
436.396816 84.384 -6.7170
439.559127 84.366 -6.5413
442.744354 84.348 -6.3439
445.952662 84.334 -6.1172
449.184218 84.323 -5.8610
452.439192 84.316 -5.5807
455.717753 84.311 -5.2888
459.020072 84.307 -5.0015
462.346321 84.301 -4.7334
465.696673 84.293 -4.4948
469.071303 84.283 -4.2882
472.470387 84.270 -4.1057
475.894102 84.257 -3.9277
479.342627 84.244 -3.7305
482.816141 84.233 -3.4990
486.314826 84.225 -3.2319
489.838864 84.221 -2.9374
493.388438 84.217 -2.6306
496.963734 84.214 -2.3320
500.564938 84.209 -2.0584
504.192238 84.202 -1.8170
507.845823 84.193 -1.6036
511.525883 84.182 -1.4045
515.232610 84.171 -1.2022
518.966198 84.161 -0.9810
522.726841 84.153 -0.7281
526.514735 84.146 -0.4376
530.330078 84.141 -0.1160
534.173068 84.138 0.2188
538.043907 84.137 0.5430
541.942795 84.135 0.8377
545.869936 84.131 1.0945
549.825534 84.126 1.3168
553.809797 84.120 1.5193
557.822931 84.113 1.7245
561.865146 84.107 1.9548
565.936652 84.101 2.2240
570.037662 84.098 2.5334
574.168390 84.096 2.8724
578.329051 84.095 3.2224
582.519862 84.096 3.5621
586.741041 84.097 3.8741
590.992808 84.097 4.1490
595.275386 84.096 4.3878
599.588997 84.094 4.6050
603.933866 84.092 4.8243
608.310219 84.090 5.0710
612.718286 84.089 5.3621
617.158295 84.089 5.6991
621.630479 84.090 6.0668
626.135069 84.092 6.4417
630.672302 84.095 6.8002
635.242414 84.098 7.1252
639.845642 84.102 7.4103
644.482227 84.107 7.6611
649.152411 84.112 7.8939
653.856437 84.118 8.1304
658.594551 84.123 8.3904
663.366998 84.129 8.6881
668.174029 84.135 9.0245
673.015893 84.141 9.3856
677.892844 84.147 9.7498
682.805135 84.154 10.0953
687.753022 84.162 10.4027
692.736764 84.172 10.6558
697.756620 84.181 10.8463
702.812853 84.187 10.9841
707.905724 84.183 11.1079
713.035501 84.167 11.2874
718.202450 84.143 11.5948
723.406841 84.120 12.0544
728.648945 84.106 12.6218
733.929036 84.104 13.2184
739.247388 84.113 13.7782
744.604279 84.129 14.2695
749.999989 84.150 14.6890
755.434798 84.174 15.0500
760.908990 84.198 15.3765
766.422850 84.221 15.6976
771.976666 84.243 16.0402
777.570727 84.264 16.4205
783.205325 84.284 16.8395
788.880754 84.303 17.2840
794.597309 84.323 17.7318
800.355289 84.343 18.1591
806.154993 84.366 18.5494
811.996725 84.391 18.9000
817.880788 84.418 19.2205
823.807489 84.446 19.5283
829.777138 84.474 19.8450
835.790045 84.500 20.1901
841.846524 84.525 20.5736
847.946891 84.549 20.9937
854.091464 84.573 21.4375
860.280562 84.599 21.8821
866.514510 84.628 22.3032
872.793631 84.661 22.6856
879.118254 84.697 23.0279
885.488707 84.736 23.3400
891.905323 84.776 23.6390
898.368437 84.817 23.9449
904.878385 84.856 24.2755
911.435507 84.893 24.6400
918.040144 84.929 25.0374
924.692641 84.965 25.4539
931.393345 85.003 25.8657
938.142606 85.044 26.2506
944.940774 85.089 26.5958
951.788204 85.139 26.8988
958.685254 85.191 27.1683
965.632282 85.244 27.4229
972.629652 85.297 27.6828
979.677727 85.348 27.9638
986.776876 85.398 28.2747
993.927468 85.445 28.6125
1001.129876 85.492 28.9629
1008.384476 85.540 29.3057
1015.691645 85.591 29.6189
1023.051766 85.647 29.8869
1030.465221 85.707 30.1093
1037.932396 85.771 30.2995
1045.453682 85.836 30.4772
1053.029471 85.900 30.6608
1060.660156 85.960 30.8633
1068.346137 86.017 31.0898
1076.087813 86.071 31.3356
1083.885589 86.124 31.5871
1091.739871 86.177 31.8267
1099.651068 86.234 32.0374
1107.619593 86.295 32.2088
1115.645861 86.360 32.3403
1123.730291 86.427 32.4419
1131.873304 86.493 32.5297
1140.075325 86.558 32.6218
1148.336780 86.618 32.7342
1156.658102 86.674 32.8736
1165.039724 86.727 33.0354
1173.482082 86.779 33.2047
1181.985617 86.831 33.3627
1190.550772 86.886 33.4912
1199.177993 86.945 33.5790
1207.867731 87.007 33.6289
1216.620439 87.072 33.6549
1225.436572 87.136 33.6747
1234.316591 87.199 33.7059
1243.260957 87.257 33.7618
1252.270139 87.313 33.8451
1261.344604 87.366 33.9487
1270.484827 87.420 34.0594
1279.691284 87.475 34.1605
1288.964455 87.533 34.2371
1298.304823 87.595 34.2803
1307.712874 87.661 34.2908
1317.189101 87.730 34.2802
1326.733996 87.798 34.2661
1336.348058 87.863 34.2660
1346.031787 87.924 34.2904
1355.785688 87.980 34.3417
1365.610270 88.032 34.4156
1375.506045 88.082 34.4993
1385.473529 88.135 34.5739
1395.513241 88.191 34.6232
1405.625705 88.252 34.6407
1415.811448 88.318 34.6294
1426.071002 88.386 34.6005
1436.404900 88.453 34.5703
1446.813682 88.519 34.5547
1457.297890 88.579 34.5633
1467.858072 88.634 34.5967
1478.494776 88.686 34.6485
1489.208559 88.737 34.7057
1499.999978 88.789 34.7531
1510.869596 88.846 34.7780
1521.817980 88.908 34.7741
1532.845701 88.975 34.7425
1543.953332 89.045 34.6933
1555.141455 89.115 34.6418
1566.410651 89.181 34.6018
1577.761508 89.243 34.5820
1589.194618 89.298 34.5843
1600.710578 89.348 34.6034
1612.309986 89.396 34.6272
1623.993449 89.445 34.6395
1635.761575 89.498 34.6259
1647.614978 89.556 34.5799
1659.554275 89.618 34.5048
1671.580089 89.683 34.4113
1683.693048 89.748 34.3148
1695.893782 89.810 34.2292
1708.182927 89.866 34.1608
1720.561125 89.918 34.1096
1733.029020 89.967 34.0692
1745.587263 90.016 34.0276
1758.236508 90.067 33.9703
1770.977414 90.124 33.8862
1783.810646 90.185 33.7705
1796.736874 90.251 33.6268
1809.756770 90.319 33.4660
1822.871013 90.386 33.3015
1836.080288 90.450 33.1431
1849.385283 90.508 32.9964
1862.786691 90.562 32.8629
1876.285211 90.611 32.7372
1889.881547 90.660 32.6068
1903.576408 90.711 32.4564
1917.370507 90.768 32.2743
1931.264564 90.830 32.0567
1945.259304 90.896 31.8092
1959.355454 90.965 31.5443
1973.553752 91.033 31.2758
1987.854936 91.096 31.0132
2002.259752 91.153 30.7596
2016.768952 91.205 30.5146
2031.383291 91.254 30.2725
2046.103531 91.302 30.0233
2060.930441 91.353 29.7543
2075.864793 91.409 29.4558
2090.907365 91.470 29.1229
2106.058941 91.535 28.7596
2121.320313 91.600 28.3769
2136.692274 91.663 27.9877
2152.175627 91.720 27.6030
2167.771179 91.768 27.2291
2183.479742 91.810 26.8658
2199.302137 91.846 26.5078
2215.239187 91.881 26.1436
2231.291723 91.919 25.7582
2247.460582 91.962 25.3406
2263.746608 92.009 24.8884
2280.150649 92.060 24.4103
2296.673561 92.110 23.9213
2313.316204 92.156 23.4341
2330.079447 92.195 22.9562
2346.964163 92.226 22.4902
2363.971233 92.249 22.0349
2381.101543 92.267 21.5863
2398.355986 92.282 21.1364
2415.735463 92.300 20.6739
2433.240878 92.322 20.1888
2450.873144 92.349 19.6786
2468.633181 92.379 19.1503
2486.521915 92.409 18.6166
2504.540278 92.434 18.0892
2522.689209 92.451 17.5770
2540.969655 92.460 17.0840
2559.382568 92.460 16.6080
2577.928909 92.455 16.1421
2596.609645 92.449 15.6737
2615.425749 92.445 15.1901
2634.378202 92.446 14.6853
2653.467992 92.452 14.1622
2672.696115 92.460 13.6305
2692.063573 92.468 13.1010
2711.571376 92.471 12.5825
2731.220539 92.467 12.0818
2751.012089 92.453 11.6038
2770.947057 92.432 11.1487
2791.026482 92.406 10.7109
2811.251410 92.379 10.2794
2831.622897 92.355 9.8427
2852.142003 92.337 9.3943
2872.809800 92.325 8.9348
2893.627364 92.316 8.4709
2914.595781 92.308 8.0139
2935.716143 92.295 7.5735
2956.989553 92.276 7.1561
2978.417118 92.249 6.7635
2999.999956 92.216 6.3926
3021.739192 92.179 6.0363
3043.635960 92.143 5.6858
3065.691401 92.110 5.3320
3087.906665 92.084 4.9684
3110.282909 92.065 4.5952
3132.821301 92.050 4.2177
3155.523016 92.036 3.8446
3178.389237 92.019 3.4849
3201.421155 91.996 3.1445
3224.619973 91.966 2.8263
3247.986898 91.929 2.5299
3271.523150 91.889 2.2499
3295.229956 91.851 1.9735
3319.108550 91.819 1.6859
3343.160179 91.794 1.3789
3367.386096 91.778 1.0545
3391.787563 91.765 0.7220
3416.365854 91.753 0.3932
3441.122250 91.736 0.0765
3466.058040 91.713 -0.2241
3491.174525 91.681 -0.5081
3516.473015 91.642 -0.7779
3541.954828 91.600 -1.0371
3567.621293 91.558 -1.2904
3593.473747 91.522 -1.5448
3619.513539 91.493 -1.8060
3645.742027 91.471 -2.0738
3672.160576 91.454 -2.3407
3698.770566 91.438 -2.5931
3725.573382 91.418 -2.8186
3752.570422 91.392 -3.0112
3779.763094 91.361 -3.1714
3807.152816 91.327 -3.3044
3834.741015 91.296 -3.4198
3862.529129 91.273 -3.5323
3890.518607 91.264 -3.6633
3918.710909 91.271 -3.8384
3947.107503 91.290 -4.0770
3975.709871 91.317 -4.3870
4004.519504 91.344 -4.7686
4033.537903 91.363 -5.2183
4062.766581 91.368 -5.7299
4092.207063 91.357 -6.2933
4121.860882 91.332 -6.8965
4151.729585 91.295 -7.5300
4181.814729 91.250 -8.1866
4212.117883 91.202 -8.8623
4242.640625 91.153 -9.5516
4273.384548 91.104 -10.2443
4304.351254 91.051 -10.9249
4335.542358 90.991 -11.5815
4366.959485 90.919 -12.2075
4398.604273 90.833 -12.7994
4430.478373 90.735 -13.3569
4462.583446 90.626 -13.8832
4494.921165 90.510 -14.3829
4527.493217 90.393 -14.8610
4560.301299 90.278 -15.3212
4593.347122 90.167 -15.7640
4626.632409 90.060 -16.1865
4660.158894 89.953 -16.5830
4693.928327 89.842 -16.9492
4727.942466 89.723 -17.2780
4762.203086 89.594 -17.5604
4796.711973 89.453 -17.7935
4831.470925 89.304 -17.9810
4866.481755 89.150 -18.1311
4901.746288 88.998 -18.2515
4937.266362 88.851 -18.3463
4973.043830 88.712 -18.4146
5009.080555 88.581 -18.4528
5045.378418 88.455 -18.4569
5081.939310 88.329 -18.4199
5118.765137 88.199 -18.3345
5155.857819 88.060 -18.1973
5193.219290 87.913 -18.0076
5230.851498 87.761 -17.7692
5268.756404 87.607 -17.4906
5306.935985 87.457 -17.1786
5345.392231 87.315 -16.8351
5384.127146 87.182 -16.4597
5423.142751 87.056 -16.0538
5462.441079 86.934 -15.6145
5502.024179 86.811 -15.1306
5541.894114 86.683 -14.5897
5582.052963 86.548 -13.9842
5622.502820 86.406 -13.3112
5663.245793 86.261 -12.5734
5704.284007 86.117 -11.7760
5745.619600 85.981 -10.9167
5787.254728 85.856 -9.9900
5829.191562 85.747 -9.0009
5871.432287 85.654 -7.9632
5913.979105 85.575 -6.8848
5956.834236 85.506 -5.7690
5999.999912 85.444 -4.6221
6043.478385 85.384 -3.4501
6087.271921 85.326 -2.2540
6131.382802 85.272 -1.0383
6175.813330 85.226 0.1886
6220.565819 85.192 1.4188
6265.642603 85.173 2.6471
6311.046032 85.173 3.8707
6356.778473 85.189 5.0917
6402.842310 85.218 6.3127
6449.239945 85.253 7.5339
6495.973796 85.290 8.7642
6543.046300 85.329 10.0256
6590.459911 85.373 11.3267
6638.217100 85.430 12.6424
6686.320358 85.504 13.9419
6734.772191 85.599 15.2068
6783.575127 85.717 16.4265
6832.731709 85.859 17.5958
6882.244499 86.023 18.7095
6932.116080 86.206 19.7605
6982.349051 86.404 20.7417
7032.946030 86.613 21.6433
7083.909656 86.834 22.4526
7135.242586 87.067 23.1528
7186.947495 87.317 23.7217
7239.027079 87.589 24.1285
7291.484053 87.886 24.3362
7344.321152 88.210 24.3074
7397.541131 88.558 24.0083
7451.146763 88.923 23.4027
7505.140844 89.296 22.4506
7559.526189 89.666 21.1150
7614.305632 90.021 19.3604
7669.482029 90.350 17.1571
7725.058258 90.638 14.4913
7781.037214 90.875 11.3700
7837.421817 91.048 7.8257
7894.215007 91.143 3.9321
7951.419743 91.147 -0.1961
8009.039008 91.050 -4.4143
8067.075806 90.848 -8.5619
8125.533163 90.543 -12.4835
8184.414126 90.146 -16.0526
8243.721764 89.668 -19.1770
8303.459170 89.126 -21.7961
8363.629458 88.536 -23.8887
8424.235765 87.918 -25.4628
8485.281250 87.290 -26.5438
8546.769096 86.668 -27.1716
8608.702508 86.064 -27.3923
8671.084715 85.485 -27.2577
8733.918969 84.936 -26.8222
8797.208547 84.414 -26.1239
8860.956746 83.915 -25.1917
8925.166891 83.434 -24.0479
8989.842330 82.971 -22.7103
9054.986433 82.525 -21.2028
9120.602598 82.101 -19.5459
9186.694244 81.703 -17.7497
9253.264817 81.338 -15.8225
9320.317788 81.011 -13.7853
9387.856653 80.724 -11.6743
9455.884932 80.476 -9.5248
9524.406173 80.260 -7.3602
9593.423946 80.066 -5.1990
9662.941850 79.888 -3.0488
9732.963510 79.719 -0.9007
9803.492576 79.561 1.2686
9874.532725 79.415 3.4833
9946.087659 79.290 5.7538
10018.161110 79.191 8.0770
10090.756835 79.125 10.4485
10163.878619 79.094 12.8635
10237.530273 79.098 15.3113
10311.715638 79.134 17.7778
10386.438580 79.202 20.2497
10461.702996 79.305 22.7102
10537.512808 79.445 25.1315
10613.871970 79.629 27.4756
10690.784461 79.863 29.6917
10768.254293 80.156 31.7195
10846.285502 80.516 33.4820
10924.882158 80.948 34.8716
11004.048358 81.448 35.7386
11083.788228 82.007 35.8900
11164.105927 82.598 35.0895
11245.005640 83.175 33.0792
11326.491587 83.659 29.6630
11408.568014 83.939 24.8872
11491.239200 83.880 19.3260
11574.509457 83.381 14.4446
11658.383123 82.491 12.8728
11742.864573 81.610 17.6500
11827.958211 81.485 27.9866
11913.668472 82.397 36.4602
11999.999825 83.773 38.3784
12086.956770 85.037 34.8309
12174.543841 85.931 27.9723
12262.765605 86.377 19.4930
12351.626659 86.380 10.7019
12441.131638 86.006 2.5982
12531.285206 85.357 -4.1664
12622.092064 84.544 -9.2990
12713.556946 83.669 -12.8003
12805.684621 82.804 -14.8591
12898.479890 81.995 -15.7527
12991.947593 81.265 -15.7635
13086.092601 80.618 -15.1337
13180.919822 80.050 -14.0536
13276.434201 79.553 -12.6622
13372.640716 79.120 -11.0593
13469.544383 78.748 -9.3289
13567.150254 78.435 -7.5464
13665.463417 78.178 -5.7698
13764.488998 77.978 -4.0432
13864.232160 77.832 -2.4075
13964.698101 77.734 -0.8960
14065.892060 77.676 0.4670
14167.819312 77.651 1.6667
14270.485171 77.650 2.6897
14373.894990 77.670 3.5168
14478.054158 77.707 4.1256
14582.968107 77.761 4.4879
14688.642305 77.833 4.5770
14795.082262 77.921 4.3691
14902.293527 78.026 3.8403
15010.281689 78.145 2.9675
15119.052378 78.275 1.7228
15228.611264 78.406 0.0624
15338.964058 78.521 -2.0628
15450.116515 78.603 -4.6859
15562.074428 78.630 -7.8065
15674.843635 78.583 -11.3813
15788.430013 78.446 -15.3179
15902.839485 78.210 -19.4692
16018.078016 77.877 -23.6441
16134.151612 77.455 -27.6414
16251.066326 76.957 -31.2857
16368.828251 76.399 -34.4514
16487.443528 75.800 -37.0753
16606.918341 75.177 -39.1655
16727.258917 74.544 -40.7930
16848.471530 73.913 -42.0602
16970.562500 73.290 -43.0842
17093.538192 72.679 -43.9908
17217.405016 72.074 -44.8933
17342.169430 71.469 -45.8710
17467.837939 70.852 -46.9727
17594.417093 70.207 -48.2330
17721.913492 69.511 -49.6688
17850.333783 68.743 -51.2555
17979.684660 67.878 -52.9180
18109.972866 66.884 -54.5306
18241.205195 65.718 -55.8208
18373.388487 64.352 -56.2046
18506.529634 62.810 -54.8071
18640.635577 61.205 -50.9275
18775.713306 59.698 -44.9691
18911.769865 58.382 -38.3359
19048.812345 57.222 -31.9185
19186.847892 56.136 -25.5253
19325.883701 55.093 -18.6027
19465.927021 54.128 -10.9790
19606.985152 53.320 -3.1082
19749.065449 52.744 4.0997
19892.175318 52.410 9.7451
20036.322221 52.269 13.0131
