* Measurement data measured by REW V5.40 beta 105
* Source: Microphone (USB Multi-Channel Audio Device), MICROPHONE (Master Volume), L, volume: 0.500
* Format: 256k Log Swept Sine, 1 sweep at -6.0 dBFS with no timing reference
* Dated: Nov 20, 2025 10:55:26 PM
* REW Settings:
*  C-weighting compensation: Off
*  Target level: 75.0 dB
* Note: ; 
* Measurement: Kunten R KZ Foam Tips Yellow Core
* Smoothing: 1/24 octave
* Frequency Step: 96 ppo
* Start Frequency: 20.0 Hz
*
* Freq(Hz) SPL(dB) Phase(degrees)
19.995176 91.762 -122.4633
20.140070 91.788 -122.9632
20.286013 91.813 -123.4622
20.433014 91.839 -123.9606
20.581080 91.863 -124.4581
20.730219 91.887 -124.9549
20.880438 91.911 -125.4510
21.031747 91.934 -125.9462
21.184151 91.957 -126.4406
21.337660 91.980 -126.9343
21.492282 92.001 -127.4271
21.648024 92.023 -127.9191
21.804894 92.044 -128.4102
21.962902 92.065 -128.9006
22.122054 92.085 -129.3902
22.282359 92.104 -129.8789
22.443827 92.124 -130.3668
22.606464 92.143 -130.8539
22.770280 92.161 -131.3402
22.935282 92.179 -131.8258
23.101481 92.197 -132.3105
23.268884 92.214 -132.7945
23.437500 92.231 -133.2778
23.607337 92.247 -133.7602
23.778406 92.263 -134.2418
23.950714 92.278 -134.7226
24.124271 92.293 -135.2026
24.299085 92.307 -135.6818
24.475166 92.321 -136.1600
24.652524 92.335 -136.6372
24.831166 92.348 -137.1135
25.011103 92.361 -137.5887
25.192344 92.373 -138.0629
25.374898 92.385 -138.5359
25.558775 92.396 -139.0078
25.743984 92.407 -139.4785
25.930536 92.418 -139.9480
26.118439 92.428 -140.4163
26.307704 92.438 -140.8834
26.498340 92.447 -141.3493
26.690358 92.456 -141.8140
26.883768 92.464 -142.2775
27.078578 92.472 -142.7399
27.274801 92.480 -143.2011
27.472445 92.487 -143.6613
27.671522 92.494 -144.1202
27.872041 92.501 -144.5781
28.074014 92.507 -145.0348
28.277450 92.513 -145.4904
28.482360 92.518 -145.9448
28.688755 92.523 -146.3980
28.896645 92.527 -146.8500
29.106042 92.532 -147.3007
29.316956 92.535 -147.7501
29.529399 92.539 -148.1982
29.743381 92.542 -148.6450
29.958914 92.544 -149.0904
30.176009 92.547 -149.5344
30.394677 92.548 -149.9771
30.614929 92.550 -150.4183
30.836777 92.551 -150.8582
31.060233 92.552 -151.2966
31.285309 92.552 -151.7337
31.512015 92.552 -152.1692
31.740364 92.552 -152.6033
31.970368 92.551 -153.0359
32.202038 92.550 -153.4670
32.435387 92.549 -153.8965
32.670428 92.547 -154.3246
32.907171 92.545 -154.7511
33.145630 92.543 -155.1760
33.385817 92.540 -155.5995
33.627744 92.537 -156.0214
33.871425 92.533 -156.4419
34.116871 92.530 -156.8609
34.364096 92.526 -157.2785
34.613112 92.521 -157.6946
34.863933 92.517 -158.1092
35.116572 92.512 -158.5224
35.371041 92.507 -158.9341
35.627354 92.501 -159.3443
35.885524 92.495 -159.7529
36.145566 92.489 -160.1599
36.407491 92.482 -160.5653
36.671315 92.475 -160.9690
36.937051 92.468 -161.3711
37.204712 92.461 -161.7714
37.474312 92.453 -162.1700
37.745867 92.445 -162.5669
38.019389 92.436 -162.9620
38.294893 92.428 -163.3554
38.572393 92.419 -163.7472
38.851905 92.410 -164.1372
39.133442 92.400 -164.5255
39.417019 92.390 -164.9122
39.702651 92.380 -165.2973
39.990353 92.370 -165.6808
40.280139 92.359 -166.0628
40.572026 92.349 -166.4433
40.866027 92.338 -166.8224
41.162159 92.326 -167.2001
41.460437 92.315 -167.5764
41.760877 92.303 -167.9515
42.063493 92.291 -168.3252
42.368303 92.278 -168.6974
42.675321 92.265 -169.0682
42.984564 92.252 -169.4372
43.296048 92.238 -169.8043
43.609789 92.224 -170.1693
43.925803 92.210 -170.5320
44.244108 92.195 -170.8922
44.564719 92.181 -171.2499
44.887653 92.165 -171.6051
45.212928 92.150 -171.9577
45.540559 92.134 -172.3081
45.870565 92.119 -172.6563
46.202962 92.103 -173.0026
46.537767 92.087 -173.3471
46.874999 92.071 -173.6901
47.214675 92.054 -174.0315
47.556812 92.038 -174.3714
47.901428 92.021 -174.7097
48.248542 92.004 -175.0463
48.598170 91.986 -175.3811
48.950333 91.968 -175.7139
49.305047 91.950 -176.0446
49.662332 91.932 -176.3732
50.022206 91.914 -176.6996
50.384687 91.895 -177.0237
50.749795 91.876 -177.3455
51.117549 91.857 -177.6652
51.487968 91.838 -177.9827
51.861071 91.818 -178.2981
52.236878 91.799 -178.6116
52.615408 91.779 -178.9231
52.996681 91.759 -179.2329
53.380716 91.738 -179.5408
53.767535 91.718 -179.8467
54.157157 91.697 179.8492
54.549602 91.676 179.5473
54.944891 91.655 179.2475
55.343044 91.634 178.9500
55.744083 91.612 178.6546
56.148027 91.591 178.3614
56.554899 91.569 178.0702
56.964719 91.547 177.7808
57.377509 91.525 177.4932
57.793290 91.502 177.2073
58.212084 91.480 176.9230
58.633913 91.457 176.6405
59.058798 91.434 176.3601
59.486763 91.410 176.0820
59.917828 91.387 175.8065
60.352018 91.363 175.5338
60.789353 91.339 175.2639
61.229858 91.315 174.9967
61.673555 91.290 174.7321
62.120467 91.266 174.4698
62.570617 91.242 174.2097
63.024030 91.217 173.9516
63.480728 91.193 173.6953
63.940735 91.168 173.4409
64.404076 91.143 173.1881
64.870775 91.119 172.9371
65.340855 91.094 172.6879
65.814342 91.068 172.4405
66.291260 91.043 172.1948
66.771634 91.018 171.9509
67.255488 90.992 171.7087
67.742849 90.966 171.4683
68.233742 90.940 171.2298
68.728192 90.914 170.9932
69.226225 90.887 170.7586
69.727866 90.861 170.5262
70.233143 90.834 170.2961
70.742082 90.807 170.0684
71.254708 90.780 169.8430
71.771049 90.753 169.6197
72.291131 90.726 169.3984
72.814983 90.698 169.1792
73.342630 90.671 168.9619
73.874101 90.643 168.7468
74.409423 90.615 168.5339
74.948625 90.587 168.3235
75.491733 90.559 168.1157
76.038777 90.531 167.9105
76.589786 90.502 167.7078
77.144787 90.474 167.5075
77.703810 90.445 167.3094
78.266884 90.417 167.1133
78.834038 90.388 166.9190
79.405302 90.359 166.7267
79.980705 90.330 166.5365
80.560278 90.301 166.3487
81.144051 90.272 166.1637
81.732055 90.242 165.9815
82.324319 90.213 165.8021
82.920875 90.184 165.6251
83.521754 90.154 165.4503
84.126987 90.125 165.2771
84.736605 90.095 165.1053
85.350642 90.066 164.9350
85.969128 90.036 164.7661
86.592096 90.006 164.5989
87.219578 89.976 164.4335
87.851607 89.946 164.2703
88.488216 89.915 164.1097
89.129438 89.885 163.9520
89.775306 89.854 163.7973
90.425855 89.823 163.6458
91.081118 89.792 163.4971
91.741129 89.761 163.3510
92.405924 89.730 163.2071
93.075535 89.699 163.0650
93.749999 89.668 162.9245
94.429350 89.637 162.7857
95.113624 89.606 162.6487
95.802856 89.575 162.5140
96.497083 89.544 162.3817
97.196341 89.512 162.2521
97.900666 89.481 162.1248
98.610094 89.449 161.9998
99.324664 89.418 161.8768
100.044411 89.386 161.7559
100.769374 89.355 161.6371
101.499591 89.323 161.5207
102.235098 89.291 161.4069
102.975936 89.260 161.2957
103.722142 89.228 161.1870
104.473756 89.196 161.0802
105.230815 89.165 160.9754
105.993361 89.133 160.8723
106.761433 89.101 160.7712
107.535070 89.069 160.6721
108.314314 89.037 160.5751
109.099204 89.005 160.4801
109.889782 88.973 160.3873
110.686088 88.941 160.2966
111.488165 88.909 160.2084
112.296055 88.877 160.1224
113.109798 88.845 160.0386
113.929438 88.813 159.9568
114.755018 88.780 159.8770
115.586580 88.748 159.7995
116.424168 88.716 159.7247
117.267826 88.683 159.6526
118.117597 88.651 159.5827
118.973525 88.619 159.5146
119.835657 88.587 159.4481
120.704035 88.555 159.3835
121.578706 88.522 159.3211
122.459716 88.490 159.2609
123.347109 88.458 159.2024
124.240933 88.426 159.1453
125.141234 88.394 159.0898
126.048059 88.362 159.0364
126.961456 88.330 158.9860
127.881471 88.297 158.9390
128.808153 88.265 158.8952
129.741550 88.233 158.8538
130.681710 88.202 158.8141
131.628684 88.170 158.7756
132.582520 88.138 158.7381
133.543267 88.107 158.7020
134.510977 88.075 158.6678
135.485699 88.043 158.6362
136.467484 88.012 158.6071
137.456384 87.980 158.5803
138.452449 87.948 158.5551
139.455733 87.917 158.5312
140.466286 87.885 158.5091
141.484163 87.853 158.4891
142.509416 87.821 158.4716
143.542098 87.789 158.4564
144.582263 87.757 158.4435
145.629965 87.725 158.4330
146.685260 87.693 158.4253
147.748202 87.662 158.4204
148.818846 87.630 158.4178
149.897249 87.598 158.4173
150.983466 87.567 158.4185
152.077555 87.536 158.4215
153.179572 87.505 158.4263
154.289574 87.474 158.4323
155.407620 87.443 158.4390
156.533767 87.411 158.4465
157.668076 87.380 158.4551
158.810603 87.349 158.4649
159.961411 87.318 158.4761
161.120557 87.287 158.4894
162.288103 87.256 158.5058
163.464109 87.225 158.5255
164.648638 87.194 158.5482
165.841750 87.163 158.5735
167.043507 87.133 158.6010
168.253973 87.103 158.6306
169.473211 87.073 158.6622
170.701284 87.043 158.6953
171.938256 87.013 158.7294
173.184191 86.984 158.7642
174.439155 86.954 158.7997
175.703213 86.924 158.8371
176.976431 86.894 158.8779
178.258875 86.864 158.9230
179.550613 86.834 158.9718
180.851710 86.804 159.0227
182.162236 86.775 159.0749
183.482259 86.745 159.1284
184.811847 86.716 159.1836
186.151070 86.687 159.2404
187.499997 86.658 159.2982
188.858700 86.629 159.3570
190.227248 86.601 159.4169
191.605713 86.572 159.4783
192.994167 86.543 159.5411
194.392682 86.514 159.6058
195.801331 86.485 159.6742
197.220189 86.456 159.7471
198.649327 86.428 159.8232
200.088822 86.399 159.9012
201.538748 86.371 159.9807
202.999181 86.343 160.0619
204.470197 86.316 160.1447
205.951872 86.288 160.2291
207.444284 86.261 160.3157
208.947511 86.233 160.4052
210.461631 86.206 160.4983
211.986723 86.179 160.5942
213.522866 86.153 160.6912
215.070141 86.127 160.7876
216.628627 86.102 160.8831
218.198408 86.076 160.9791
219.779563 86.049 161.0770
221.372177 86.023 161.1779
222.976331 85.997 161.2822
224.592109 85.972 161.3898
226.219596 85.947 161.5009
227.858877 85.922 161.6150
229.510036 85.899 161.7300
231.173160 85.876 161.8443
232.848336 85.854 161.9576
234.535651 85.831 162.0704
236.235193 85.809 162.1834
237.947051 85.788 162.2970
239.671313 85.766 162.4120
241.408071 85.744 162.5290
243.157413 85.723 162.6478
244.919432 85.702 162.7676
246.694219 85.681 162.8879
248.481867 85.661 163.0084
250.282469 85.641 163.1280
252.096119 85.621 163.2465
253.922911 85.602 163.3648
255.762941 85.583 163.4832
257.616305 85.565 163.6002
259.483099 85.546 163.7142
261.363421 85.528 163.8266
263.257368 85.509 163.9397
265.165039 85.491 164.0538
267.086534 85.472 164.1665
269.021953 85.453 164.2772
270.971397 85.435 164.3881
272.934968 85.416 164.5004
274.912767 85.397 164.6125
276.904898 85.379 164.7225
278.911465 85.360 164.8315
280.932573 85.341 164.9417
282.968326 85.322 165.0540
285.018831 85.303 165.1677
287.084195 85.283 165.2823
289.164526 85.263 165.3975
291.259931 85.243 165.5138
293.370520 85.223 165.6310
295.496404 85.203 165.7488
297.637693 85.183 165.8676
299.794498 85.163 165.9877
301.966933 85.143 166.1100
304.155110 85.124 166.2356
306.359143 85.104 166.3636
308.579148 85.085 166.4920
310.815239 85.066 166.6200
313.067535 85.047 166.7485
315.336151 85.028 166.8795
317.621207 85.008 167.0146
319.922821 84.988 167.1537
322.241114 84.969 167.2962
324.576206 84.949 167.4417
326.928219 84.930 167.5892
329.297275 84.911 167.7376
331.683499 84.892 167.8866
334.087014 84.874 168.0363
336.507947 84.855 168.1857
338.946422 84.837 168.3352
341.402567 84.818 168.4872
343.876511 84.800 168.6428
346.368382 84.782 168.8008
348.878310 84.764 168.9592
351.406426 84.747 169.1173
353.952862 84.729 169.2760
356.517750 84.711 169.4360
359.101225 84.694 169.5974
361.703421 84.676 169.7607
364.324473 84.659 169.9265
366.964518 84.642 170.0950
369.623694 84.625 170.2653
372.302140 84.609 170.4353
374.999995 84.593 170.6040
377.717399 84.576 170.7738
380.454495 84.560 170.9476
383.211425 84.544 171.1255
385.988333 84.529 171.3048
388.785364 84.514 171.4835
391.602663 84.499 171.6628
394.440377 84.484 171.8446
397.298655 84.469 172.0297
400.177644 84.453 172.2173
403.077497 84.439 172.4053
405.998362 84.425 172.5902
408.940394 84.410 172.7718
411.903744 84.396 172.9532
414.888569 84.382 173.1381
417.895022 84.368 173.3274
420.923262 84.355 173.5181
423.973445 84.342 173.7075
427.045732 84.330 173.8976
430.140281 84.317 174.0919
433.257255 84.305 174.2902
436.396816 84.294 174.4890
439.559127 84.282 174.6863
442.744354 84.270 174.8839
445.952662 84.258 175.0832
449.184218 84.246 175.2841
452.439192 84.234 175.4846
455.717753 84.221 175.6844
459.020072 84.209 175.8868
462.346321 84.198 176.0934
465.696673 84.186 176.3029
469.071303 84.175 176.5134
472.470387 84.165 176.7245
475.894102 84.154 176.9360
479.342627 84.144 177.1482
482.816141 84.134 177.3616
486.314826 84.124 177.5760
489.838864 84.114 177.7910
493.388438 84.105 178.0077
496.963734 84.096 178.2269
500.564938 84.087 178.4481
504.192238 84.078 178.6693
507.845823 84.069 178.8901
511.525883 84.061 179.1121
515.232610 84.053 179.3359
518.966198 84.045 179.5609
522.726841 84.037 179.7872
526.514735 84.029 -179.9854
530.330078 84.021 -179.7563
534.173068 84.014 -179.5253
538.043907 84.007 -179.2924
541.942795 84.001 -179.0583
545.869936 83.995 -178.8226
549.825534 83.989 -178.5843
553.809797 83.983 -178.3439
557.822931 83.976 -178.1048
561.865146 83.970 -177.8705
565.936652 83.964 -177.6402
570.037662 83.958 -177.4088
574.168390 83.952 -177.1728
578.329051 83.947 -176.9322
582.519862 83.942 -176.6881
586.741041 83.937 -176.4406
590.992808 83.932 -176.1889
595.275386 83.927 -175.9323
599.588997 83.923 -175.6727
603.933866 83.919 -175.4136
608.310219 83.915 -175.1562
612.718286 83.911 -174.9019
617.158295 83.908 -174.6510
621.630479 83.905 -174.4002
626.135069 83.903 -174.1471
630.672302 83.900 -173.8907
635.242414 83.898 -173.6311
639.845642 83.895 -173.3690
644.482227 83.892 -173.1063
649.152411 83.890 -172.8450
653.856437 83.887 -172.5856
658.594551 83.883 -172.3286
663.366998 83.880 -172.0739
668.174029 83.876 -171.8201
673.015893 83.872 -171.5666
677.892844 83.868 -171.3181
682.805135 83.862 -171.0806
687.753022 83.855 -170.8570
692.736764 83.843 -170.6491
697.756620 83.824 -170.4542
702.812853 83.796 -170.2571
707.905724 83.754 -170.0172
713.035501 83.700 -169.6609
718.202450 83.644 -169.1181
723.406841 83.603 -168.3951
728.648945 83.584 -167.5851
733.929036 83.588 -166.7878
739.247388 83.606 -166.0446
744.604279 83.633 -165.3480
749.999989 83.667 -164.6783
755.434798 83.707 -164.0282
760.908990 83.755 -163.4060
766.422850 83.811 -162.8279
771.976666 83.873 -162.3088
777.570727 83.939 -161.8562
783.205325 84.007 -161.4701
788.880754 84.072 -161.1438
794.597309 84.133 -160.8652
800.355289 84.190 -160.6213
806.154993 84.241 -160.3994
811.996725 84.288 -160.1891
817.880788 84.331 -159.9820
823.807489 84.371 -159.7716
829.777138 84.407 -159.5544
835.790045 84.442 -159.3304
841.846524 84.476 -159.1016
847.946891 84.509 -158.8668
854.091464 84.542 -158.6230
860.280562 84.575 -158.3700
866.514510 84.608 -158.1111
872.793631 84.642 -157.8491
879.118254 84.676 -157.5849
885.488707 84.711 -157.3188
891.905323 84.746 -157.0489
898.368437 84.782 -156.7741
904.878385 84.819 -156.4973
911.435507 84.857 -156.2208
918.040144 84.896 -155.9438
924.692641 84.936 -155.6663
931.393345 84.977 -155.3903
938.142606 85.019 -155.1179
944.940774 85.062 -154.8497
951.788204 85.107 -154.5860
958.685254 85.152 -154.3264
965.632282 85.198 -154.0712
972.629652 85.245 -153.8203
979.677727 85.293 -153.5741
986.776876 85.342 -153.3326
993.927468 85.392 -153.0951
1001.129876 85.443 -152.8624
1008.384476 85.495 -152.6368
1015.691645 85.548 -152.4188
1023.051766 85.601 -152.2086
1030.465221 85.654 -152.0056
1037.932396 85.707 -151.8097
1045.453682 85.761 -151.6212
1053.029471 85.816 -151.4403
1060.660156 85.872 -151.2679
1068.346137 85.928 -151.1041
1076.087813 85.984 -150.9479
1083.885589 86.041 -150.7989
1091.739871 86.098 -150.6569
1099.651068 86.154 -150.5215
1107.619593 86.211 -150.3939
1115.645861 86.268 -150.2758
1123.730291 86.325 -150.1668
1131.873304 86.383 -150.0650
1140.075325 86.440 -149.9699
1148.336780 86.497 -149.8835
1156.658102 86.554 -149.8062
1165.039724 86.611 -149.7368
1173.482082 86.667 -149.6737
1181.985617 86.724 -149.6164
1190.550772 86.779 -149.5656
1199.177993 86.834 -149.5214
1207.867731 86.889 -149.4831
1216.620439 86.943 -149.4500
1225.436572 86.996 -149.4209
1234.316591 87.049 -149.3954
1243.260957 87.102 -149.3739
1252.270139 87.155 -149.3582
1261.344604 87.209 -149.3500
1270.484827 87.261 -149.3487
1279.691284 87.313 -149.3522
1288.964455 87.365 -149.3583
1298.304823 87.415 -149.3664
1307.712874 87.465 -149.3773
1317.189101 87.514 -149.3911
1326.733996 87.563 -149.4073
1336.348058 87.612 -149.4253
1346.031787 87.660 -149.4445
1355.785688 87.709 -149.4668
1365.610270 87.758 -149.4938
1375.506045 87.806 -149.5258
1385.473529 87.854 -149.5627
1395.513241 87.902 -149.6021
1405.625705 87.948 -149.6416
1415.811448 87.994 -149.6806
1426.071002 88.041 -149.7205
1436.404900 88.086 -149.7632
1446.813682 88.132 -149.8096
1457.297890 88.178 -149.8599
1467.858072 88.224 -149.9135
1478.494776 88.270 -149.9707
1489.208559 88.316 -150.0305
1499.999978 88.362 -150.0908
1510.869596 88.408 -150.1516
1521.817980 88.453 -150.2152
1532.845701 88.499 -150.2822
1543.953332 88.544 -150.3527
1555.141455 88.589 -150.4259
1566.410651 88.635 -150.5014
1577.761508 88.680 -150.5800
1589.194618 88.726 -150.6639
1600.710578 88.771 -150.7532
1612.309986 88.817 -150.8463
1623.993449 88.862 -150.9422
1635.761575 88.907 -151.0410
1647.614978 88.952 -151.1426
1659.554275 88.996 -151.2477
1671.580089 89.041 -151.3577
1683.693048 89.086 -151.4736
1695.893782 89.131 -151.5949
1708.182927 89.177 -151.7205
1720.561125 89.222 -151.8506
1733.029020 89.267 -151.9870
1745.587263 89.312 -152.1298
1758.236508 89.356 -152.2772
1770.977414 89.401 -152.4285
1783.810646 89.445 -152.5836
1796.736874 89.489 -152.7430
1809.756770 89.533 -152.9085
1822.871013 89.576 -153.0818
1836.080288 89.620 -153.2622
1849.385283 89.663 -153.4494
1862.786691 89.706 -153.6427
1876.285211 89.749 -153.8413
1889.881547 89.791 -154.0459
1903.576408 89.834 -154.2569
1917.370507 89.875 -154.4738
1931.264564 89.916 -154.6954
1945.259304 89.957 -154.9224
1959.355454 89.998 -155.1560
1973.553752 90.037 -155.3977
1987.854936 90.077 -155.6486
2002.259752 90.115 -155.9071
2016.768952 90.153 -156.1714
2031.383291 90.190 -156.4419
2046.103531 90.227 -156.7181
2060.930441 90.262 -156.9995
2075.864793 90.297 -157.2878
2090.907365 90.331 -157.5850
2106.058941 90.364 -157.8903
2121.320313 90.396 -158.2028
2136.692274 90.427 -158.5215
2152.175627 90.456 -158.8432
2167.771179 90.485 -159.1640
2183.479742 90.513 -159.4842
2199.302137 90.541 -159.8080
2215.239187 90.568 -160.1383
2231.291723 90.594 -160.4767
2247.460582 90.619 -160.8225
2263.746608 90.642 -161.1738
2280.150649 90.665 -161.5285
2296.673561 90.686 -161.8863
2313.316204 90.707 -162.2476
2330.079447 90.725 -162.6122
2346.964163 90.743 -162.9795
2363.971233 90.759 -163.3489
2381.101543 90.775 -163.7196
2398.355986 90.789 -164.0908
2415.735463 90.802 -164.4637
2433.240878 90.814 -164.8394
2450.873144 90.825 -165.2176
2468.633181 90.835 -165.5971
2486.521915 90.844 -165.9768
2504.540278 90.852 -166.3560
2522.689209 90.858 -166.7348
2540.969655 90.864 -167.1143
2559.382568 90.869 -167.4945
2577.928909 90.873 -167.8744
2596.609645 90.876 -168.2533
2615.425749 90.877 -168.6306
2634.378202 90.877 -169.0051
2653.467992 90.877 -169.3766
2672.696115 90.877 -169.7475
2692.063573 90.875 -170.1188
2711.571376 90.873 -170.4907
2731.220539 90.870 -170.8627
2751.012089 90.867 -171.2325
2770.947057 90.863 -171.5981
2791.026482 90.858 -171.9604
2811.251410 90.853 -172.3211
2831.622897 90.848 -172.6810
2852.142003 90.841 -173.0407
2872.809800 90.835 -173.4001
2893.627364 90.828 -173.7593
2914.595781 90.821 -174.1182
2935.716143 90.814 -174.4761
2956.989553 90.806 -174.8335
2978.417118 90.798 -175.1913
2999.999956 90.790 -175.5497
3021.739192 90.782 -175.9079
3043.635960 90.773 -176.2661
3065.691401 90.764 -176.6259
3087.906665 90.756 -176.9877
3110.282909 90.747 -177.3508
3132.821301 90.738 -177.7165
3155.523016 90.729 -178.0865
3178.389237 90.720 -178.4605
3201.421155 90.710 -178.8375
3224.619973 90.700 -179.2179
3247.986898 90.690 -179.6038
3271.523150 90.680 -179.9963
3295.229956 90.669 179.6053
3319.108550 90.658 179.2009
3343.160179 90.647 178.7901
3367.386096 90.635 178.3722
3391.787563 90.623 177.9465
3416.365854 90.610 177.5128
3441.122250 90.597 177.0715
3466.058040 90.582 176.6221
3491.174525 90.566 176.1640
3516.473015 90.549 175.6962
3541.954828 90.531 175.2185
3567.621293 90.511 174.7308
3593.473747 90.490 174.2338
3619.513539 90.467 173.7272
3645.742027 90.442 173.2109
3672.160576 90.416 172.6849
3698.770566 90.387 172.1484
3725.573382 90.355 171.6021
3752.570422 90.321 171.0486
3779.763094 90.284 170.4889
3807.152816 90.244 169.9223
3834.741015 90.201 169.3486
3862.529129 90.155 168.7695
3890.518607 90.106 168.1861
3918.710909 90.053 167.5995
3947.107503 89.996 167.0109
3975.709871 89.934 166.4219
4004.519504 89.869 165.8328
4033.537903 89.798 165.2452
4062.766581 89.724 164.6636
4092.207063 89.644 164.0904
4121.860882 89.561 163.5265
4151.729585 89.473 162.9735
4181.814729 89.381 162.4332
4212.117883 89.284 161.9069
4242.640625 89.183 161.3968
4273.384548 89.076 160.9064
4304.351254 88.966 160.4377
4335.542358 88.851 159.9912
4366.959485 88.731 159.5684
4398.604273 88.608 159.1719
4430.478373 88.481 158.8057
4462.583446 88.349 158.4728
4494.921165 88.214 158.1738
4527.493217 88.075 157.9091
4560.301299 87.933 157.6803
4593.347122 87.788 157.4896
4626.632409 87.640 157.3380
4660.158894 87.489 157.2272
4693.928327 87.337 157.1592
4727.942466 87.182 157.1345
4762.203086 87.026 157.1546
4796.711973 86.869 157.2216
4831.470925 86.710 157.3367
4866.481755 86.550 157.4987
4901.746288 86.390 157.7069
4937.266362 86.230 157.9629
4973.043830 86.069 158.2700
5009.080555 85.909 158.6295
5045.378418 85.749 159.0416
5081.939310 85.591 159.5053
5118.765137 85.434 160.0209
5155.857819 85.279 160.5898
5193.219290 85.126 161.2139
5230.851498 84.975 161.8956
5268.756404 84.828 162.6387
5306.935985 84.684 163.4451
5345.392231 84.545 164.3147
5384.127146 84.412 165.2500
5423.142751 84.286 166.2523
5462.441079 84.168 167.3171
5502.024179 84.059 168.4407
5541.894114 83.960 169.6215
5582.052963 83.873 170.8560
5622.502820 83.801 172.1367
5663.245793 83.744 173.4515
5704.284007 83.704 174.7836
5745.619600 83.682 176.1152
5787.254728 83.677 177.4256
5829.191562 83.689 178.6937
5871.432287 83.716 179.9021
5913.979105 83.756 -178.9654
5956.834236 83.806 -177.9234
5999.999912 83.863 -176.9783
6043.478385 83.924 -176.1310
6087.271921 83.986 -175.3789
6131.382802 84.045 -174.7146
6175.813330 84.100 -174.1253
6220.565819 84.149 -173.5960
6265.642603 84.192 -173.1101
6311.046032 84.227 -172.6487
6356.778473 84.254 -172.1941
6402.842310 84.275 -171.7290
6449.239945 84.291 -171.2398
6495.973796 84.303 -170.7151
6543.046300 84.316 -170.1437
6590.459911 84.334 -169.5192
6638.217100 84.361 -168.8573
6686.320358 84.402 -168.2140
6734.772191 84.454 -167.6732
6783.575127 84.501 -167.2751
6832.731709 84.530 -166.9332
6882.244499 84.543 -166.4979
6932.116080 84.557 -165.9043
6982.349051 84.588 -165.2018
7032.946030 84.641 -164.4838
7083.909656 84.713 -163.8243
7135.242586 84.799 -163.2604
7186.947495 84.894 -162.8005
7239.027079 84.992 -162.4406
7291.484053 85.090 -162.1741
7344.321152 85.187 -161.9913
7397.541131 85.283 -161.8815
7451.146763 85.379 -161.8375
7505.140844 85.474 -161.8593
7559.526189 85.567 -161.9519
7614.305632 85.659 -162.1199
7669.482029 85.749 -162.3674
7725.058258 85.836 -162.6973
7781.037214 85.917 -163.1127
7837.421817 85.991 -163.6170
7894.215007 86.056 -164.2110
7951.419743 86.111 -164.8901
8009.039008 86.152 -165.6462
8067.075806 86.179 -166.4689
8125.533163 86.189 -167.3479
8184.414126 86.181 -168.2704
8243.721764 86.154 -169.2193
8303.459170 86.108 -170.1773
8363.629458 86.043 -171.1257
8424.235765 85.958 -172.0440
8485.281250 85.854 -172.9137
8546.769096 85.734 -173.7188
8608.702508 85.596 -174.4426
8671.084715 85.445 -175.0681
8733.918969 85.281 -175.5814
8797.208547 85.107 -175.9733
8860.956746 84.928 -176.2385
8925.166891 84.745 -176.3762
8989.842330 84.562 -176.3862
9054.986433 84.380 -176.2685
9120.602598 84.204 -176.0274
9186.694244 84.033 -175.6680
9253.264817 83.871 -175.1954
9320.317788 83.720 -174.6162
9387.856653 83.581 -173.9373
9455.884932 83.456 -173.1680
9524.406173 83.348 -172.3189
9593.423946 83.256 -171.3988
9662.941850 83.185 -170.4181
9732.963510 83.135 -169.3951
9803.492576 83.106 -168.3535
9874.532725 83.099 -167.3152
9946.087659 83.112 -166.2896
10018.161110 83.145 -165.2717
10090.756835 83.199 -164.2527
10163.878619 83.277 -163.2378
10237.530273 83.384 -162.2472
10311.715638 83.521 -161.3085
10386.438580 83.691 -160.4568
10461.702996 83.895 -159.7351
10537.512808 84.132 -159.1905
10613.871970 84.400 -158.8722
10690.784461 84.698 -158.8313
10768.254293 85.019 -159.1192
10846.285502 85.358 -159.7869
10924.882158 85.705 -160.8840
11004.048358 86.051 -162.4550
11083.788228 86.381 -164.5331
11164.105927 86.678 -167.1311
11245.005640 86.925 -170.2340
11326.491587 87.099 -173.7912
11408.568014 87.185 -177.7088
11491.239200 87.167 178.1494
11574.509457 87.040 173.9489
11658.383123 86.804 169.8627
11742.864573 86.466 166.0508
11827.958211 86.041 162.6429
11913.668472 85.547 159.7266
11999.999825 85.004 157.3467
12086.956770 84.431 155.5072
12174.543841 83.846 154.1800
12262.765605 83.262 153.3196
12351.626659 82.691 152.8728
12441.131638 82.138 152.7822
12531.285206 81.611 152.9901
12622.092064 81.111 153.4397
12713.556946 80.641 154.0734
12805.684621 80.201 154.8381
12898.479890 79.788 155.6935
12991.947593 79.401 156.6124
13086.092601 79.038 157.5736
13180.919822 78.698 158.5544
13276.434201 78.380 159.5286
13372.640716 78.084 160.4674
13469.544383 77.807 161.3426
13567.150254 77.547 162.1256
13665.463417 77.299 162.7935
13764.488998 77.058 163.3277
13864.232160 76.817 163.7141
13964.698101 76.569 163.9547
14065.892060 76.308 164.0673
14167.819312 76.029 164.0789
14270.485171 75.727 164.0265
14373.894990 75.400 163.9487
14478.054158 75.047 163.8923
14582.968107 74.668 163.9155
14688.642305 74.268 164.0746
14795.082262 73.853 164.4193
14902.293527 73.431 164.9675
15010.281689 73.011 165.7145
15119.052378 72.604 166.6375
15228.611264 72.219 167.6859
15338.964058 71.860 168.8008
15450.116515 71.529 169.9182
15562.074428 71.222 170.9732
15674.843635 70.932 171.9196
15788.430013 70.652 172.7409
15902.839485 70.378 173.4512
16018.078016 70.106 174.0771
16134.151612 69.831 174.6505
16251.066326 69.550 175.1830
16368.828251 69.266 175.6581
16487.443528 68.981 176.0701
16606.918341 68.691 176.4130
16727.258917 68.392 176.6617
16848.471530 68.080 176.7812
16970.562500 67.751 176.7373
17093.538192 67.396 176.5142
17217.405016 66.999 176.1297
17342.169430 66.540 175.6459
17467.837939 66.005 175.1732
17594.417093 65.387 174.8613
17721.913492 64.688 174.8827
17850.333783 63.919 175.3982
17979.684660 63.101 176.5255
18109.972866 62.257 178.3052
18241.205195 61.408 -179.3385
18373.388487 60.574 -176.5489
18506.529634 59.763 -173.4462
18640.635577 58.970 -170.0498
18775.713306 58.183 -166.3008
18911.769865 57.410 -162.1400
19048.812345 56.674 -157.6465
19186.847892 55.984 -153.1173
19325.883701 55.319 -148.8214
19465.927021 54.653 -144.7914
19606.985152 53.973 -140.8455
19749.065449 53.307 -136.8443
19892.175318 52.755 -132.9631
20036.322221 52.449 -130.1844
