* Measurement data measured by REW V5.40 beta 105
* Source: Microphone (USB Multi-Channel Audio Device), MICROPHONE (Master Volume), L, volume: 0.490
* Format: 256k Log Swept Sine, 1 sweep at -6.0 dBFS with no timing reference
* Dated: Nov 19, 2025 9:08:19 PM
* REW Settings:
*  C-weighting compensation: Off
*  Target level: 75.0 dB
* Note: ; 
* Measurement: Kunten R
* Smoothing: 1/24 octave
* Frequency Step: 96 ppo
* Start Frequency: 20.0 Hz
*
* Freq(Hz) SPL(dB) Phase(degrees)
19.995176 92.594 47.8134
20.140070 92.612 47.3042
20.286013 92.630 46.7958
20.433014 92.647 46.2882
20.581080 92.663 45.7814
20.730219 92.679 45.2755
20.880438 92.694 44.7705
21.031747 92.709 44.2664
21.184151 92.723 43.7633
21.337660 92.737 43.2611
21.492282 92.750 42.7600
21.648024 92.763 42.2599
21.804894 92.775 41.7610
21.962902 92.788 41.2631
22.122054 92.799 40.7664
22.282359 92.811 40.2709
22.443827 92.821 39.7766
22.606464 92.832 39.2835
22.770280 92.842 38.7917
22.935282 92.851 38.3010
23.101481 92.860 37.8116
23.268884 92.868 37.3234
23.437500 92.876 36.8365
23.607337 92.884 36.3508
23.778406 92.891 35.8663
23.950714 92.897 35.3831
24.124271 92.904 34.9013
24.299085 92.909 34.4207
24.475166 92.915 33.9415
24.652524 92.920 33.4637
24.831166 92.925 32.9874
25.011103 92.929 32.5125
25.192344 92.932 32.0393
25.374898 92.935 31.5677
25.558775 92.937 31.0979
25.743984 92.940 30.6298
25.930536 92.941 30.1635
26.118439 92.943 29.6990
26.307704 92.945 29.2364
26.498340 92.946 28.7755
26.690358 92.947 28.3165
26.883768 92.947 27.8592
27.078578 92.947 27.4036
27.274801 92.947 26.9495
27.472445 92.946 26.4968
27.671522 92.944 26.0454
27.872041 92.943 25.5953
28.074014 92.941 25.1465
28.277450 92.939 24.6986
28.482360 92.936 24.2518
28.688755 92.933 23.8059
28.896645 92.930 23.3611
29.106042 92.927 22.9172
29.316956 92.923 22.4745
29.529399 92.919 22.0328
29.743381 92.914 21.5924
29.958914 92.909 21.1533
30.176009 92.904 20.7155
30.394677 92.898 20.2793
30.614929 92.891 19.8446
30.836777 92.885 19.4116
31.060233 92.877 18.9802
31.285309 92.870 18.5507
31.512015 92.862 18.1230
31.740364 92.854 17.6971
31.970368 92.846 17.2731
32.202038 92.837 16.8510
32.435387 92.829 16.4306
32.670428 92.819 16.0120
32.907171 92.810 15.5951
33.145630 92.800 15.1798
33.385817 92.790 14.7659
33.627744 92.780 14.3535
33.871425 92.770 13.9423
34.116871 92.759 13.5323
34.364096 92.748 13.1234
34.613112 92.737 12.7158
34.863933 92.725 12.3093
35.116572 92.712 11.9041
35.371041 92.699 11.5002
35.627354 92.686 11.0980
35.885524 92.672 10.6975
36.145566 92.659 10.2991
36.407491 92.644 9.9028
36.671315 92.629 9.5090
36.937051 92.614 9.1177
37.204712 92.599 8.7291
37.474312 92.583 8.3433
37.745867 92.567 7.9603
38.019389 92.551 7.5801
38.294893 92.534 7.2025
38.572393 92.518 6.8275
38.851905 92.501 6.4550
39.133442 92.485 6.0845
39.417019 92.468 5.7160
39.702651 92.451 5.3493
39.990353 92.433 4.9843
40.280139 92.416 4.6207
40.572026 92.398 4.2585
40.866027 92.379 3.8977
41.162159 92.361 3.5383
41.460437 92.342 3.1804
41.760877 92.323 2.8240
42.063493 92.304 2.4694
42.368303 92.285 2.1165
42.675321 92.265 1.7656
42.984564 92.245 1.4167
43.296048 92.225 1.0701
43.609789 92.204 0.7257
43.925803 92.184 0.3837
44.244108 92.163 0.0441
44.564719 92.142 -0.2933
44.887653 92.120 -0.6283
45.212928 92.099 -0.9611
45.540559 92.077 -1.2917
45.870565 92.055 -1.6204
46.202962 92.033 -1.9470
46.537767 92.011 -2.2718
46.874999 91.988 -2.5948
47.214675 91.966 -2.9160
47.556812 91.943 -3.2354
47.901428 91.920 -3.5528
48.248542 91.896 -3.8683
48.598170 91.872 -4.1816
48.950333 91.847 -4.4929
49.305047 91.822 -4.8018
49.662332 91.797 -5.1083
50.022206 91.772 -5.4126
50.384687 91.747 -5.7145
50.749795 91.721 -6.0142
51.117549 91.696 -6.3116
51.487968 91.670 -6.6071
51.861071 91.644 -6.9005
52.236878 91.618 -7.1919
52.615408 91.592 -7.4815
52.996681 91.567 -7.7691
53.380716 91.541 -8.0547
53.767535 91.515 -8.3382
54.157157 91.489 -8.6195
54.549602 91.462 -8.8986
54.944891 91.435 -9.1755
55.343044 91.407 -9.4502
55.744083 91.379 -9.7227
56.148027 91.352 -9.9928
56.554899 91.324 -10.2605
56.964719 91.297 -10.5253
57.377509 91.270 -10.7867
57.793290 91.242 -11.0446
58.212084 91.214 -11.2985
58.633913 91.186 -11.5485
59.058798 91.157 -11.7952
59.486763 91.128 -12.0388
59.917828 91.099 -12.2803
60.352018 91.070 -12.5199
60.789353 91.040 -12.7582
61.229858 91.010 -12.9955
61.673555 90.979 -13.2315
62.120467 90.947 -13.4663
62.570617 90.915 -13.6997
63.024030 90.884 -13.9316
63.480728 90.855 -14.1619
63.940735 90.827 -14.3903
64.404076 90.798 -14.6166
64.870775 90.769 -14.8407
65.340855 90.739 -15.0625
65.814342 90.707 -15.2819
66.291260 90.674 -15.4989
66.771634 90.641 -15.7141
67.255488 90.608 -15.9275
67.742849 90.576 -16.1396
68.233742 90.544 -16.3505
68.728192 90.512 -16.5594
69.226225 90.480 -16.7656
69.727866 90.447 -16.9678
70.233143 90.415 -17.1649
70.742082 90.383 -17.3564
71.254708 90.352 -17.5425
71.771049 90.322 -17.7248
72.291131 90.292 -17.9059
72.814983 90.263 -18.0891
73.342630 90.233 -18.2770
73.874101 90.202 -18.4705
74.409423 90.169 -18.6678
74.948625 90.135 -18.8646
75.491733 90.099 -19.0553
76.038777 90.062 -19.2357
76.589786 90.025 -19.4050
77.144787 89.988 -19.5654
77.703810 89.952 -19.7211
78.266884 89.916 -19.8757
78.834038 89.880 -20.0309
79.405302 89.844 -20.1863
79.980705 89.809 -20.3403
80.560278 89.775 -20.4918
81.144051 89.741 -20.6406
81.732055 89.707 -20.7871
82.324319 89.673 -20.9323
82.920875 89.639 -21.0764
83.521754 89.604 -21.2192
84.126987 89.569 -21.3602
84.736605 89.533 -21.4990
85.350642 89.497 -21.6351
85.969128 89.461 -21.7687
86.592096 89.425 -21.8998
87.219578 89.389 -22.0284
87.851607 89.354 -22.1545
88.488216 89.318 -22.2781
89.129438 89.283 -22.3989
89.775306 89.247 -22.5172
90.425855 89.209 -22.6329
91.081118 89.171 -22.7463
91.741129 89.132 -22.8569
92.405924 89.092 -22.9642
93.075535 89.053 -23.0675
93.749999 89.013 -23.1660
94.429350 88.973 -23.2594
95.113624 88.932 -23.3476
95.802856 88.890 -23.4304
96.497083 88.846 -23.5075
97.196341 88.801 -23.5785
97.900666 88.756 -23.6425
98.610094 88.711 -23.6979
99.324664 88.664 -23.7430
100.044411 88.618 -23.7758
100.769374 88.571 -23.7946
101.499591 88.523 -23.7974
102.235098 88.476 -23.7816
102.975936 88.427 -23.7434
103.722142 88.378 -23.6780
104.473756 88.330 -23.5802
105.230815 88.284 -23.4466
105.993361 88.241 -23.2757
106.761433 88.203 -23.0692
107.535070 88.172 -22.8325
108.314314 88.150 -22.5751
109.099204 88.138 -22.3123
109.889782 88.138 -22.0646
110.686088 88.150 -21.8558
111.488165 88.170 -21.7092
112.296055 88.196 -21.6426
113.109798 88.225 -21.6638
113.929438 88.250 -21.7695
114.755018 88.270 -21.9465
115.586580 88.281 -22.1755
116.424168 88.284 -22.4359
117.267826 88.278 -22.7103
118.117597 88.264 -22.9855
118.973525 88.244 -23.2516
119.835657 88.218 -23.5015
120.704035 88.188 -23.7306
121.578706 88.154 -23.9369
122.459716 88.117 -24.1210
123.347109 88.079 -24.2844
124.240933 88.039 -24.4295
125.141234 87.998 -24.5577
126.048059 87.958 -24.6705
126.961456 87.917 -24.7687
127.881471 87.876 -24.8535
128.808153 87.837 -24.9263
129.741550 87.797 -24.9890
130.681710 87.759 -25.0437
131.628684 87.721 -25.0925
132.582520 87.684 -25.1371
133.543267 87.647 -25.1774
134.510977 87.610 -25.2122
135.485699 87.574 -25.2415
136.467484 87.539 -25.2673
137.456384 87.505 -25.2935
138.452449 87.472 -25.3223
139.455733 87.438 -25.3530
140.466286 87.404 -25.3833
141.484163 87.369 -25.4097
142.509416 87.334 -25.4294
143.542098 87.299 -25.4414
144.582263 87.264 -25.4465
145.629965 87.229 -25.4467
146.685260 87.194 -25.4436
147.748202 87.158 -25.4373
148.818846 87.123 -25.4269
149.897249 87.087 -25.4120
150.983466 87.052 -25.3932
152.077555 87.016 -25.3702
153.179572 86.980 -25.3420
154.289574 86.944 -25.3064
155.407620 86.908 -25.2618
156.533767 86.873 -25.2074
157.668076 86.839 -25.1440
158.810603 86.807 -25.0743
159.961411 86.778 -25.0007
161.120557 86.751 -24.9236
162.288103 86.728 -24.8419
163.464109 86.708 -24.7544
164.648638 86.692 -24.6616
165.841750 86.681 -24.5642
167.043507 86.674 -24.4637
168.253973 86.668 -24.3620
169.473211 86.661 -24.2626
170.701284 86.648 -24.1696
171.938256 86.628 -24.0872
173.184191 86.602 -24.0181
174.439155 86.568 -23.9633
175.703213 86.525 -23.9230
176.976431 86.473 -23.8965
178.258875 86.417 -23.8817
179.550613 86.361 -23.8740
180.851710 86.306 -23.8690
182.162236 86.256 -23.8633
183.482259 86.211 -23.8544
184.811847 86.170 -23.8402
186.151070 86.134 -23.8182
187.499997 86.103 -23.7857
188.858700 86.075 -23.7405
190.227248 86.048 -23.6804
191.605713 86.023 -23.6043
192.994167 85.999 -23.5133
194.392682 85.979 -23.4114
195.801331 85.961 -23.3052
197.220189 85.947 -23.2028
198.649327 85.934 -23.1123
200.088822 85.921 -23.0386
201.538748 85.906 -22.9814
202.999181 85.888 -22.9344
204.470197 85.868 -22.8885
205.951872 85.844 -22.8360
207.444284 85.819 -22.7736
208.947511 85.792 -22.7009
210.461631 85.764 -22.6193
211.986723 85.737 -22.5295
213.522866 85.709 -22.4315
215.070141 85.681 -22.3252
216.628627 85.654 -22.2126
218.198408 85.628 -22.0969
219.779563 85.603 -21.9804
221.372177 85.579 -21.8650
222.976331 85.555 -21.7533
224.592109 85.533 -21.6477
226.219596 85.511 -21.5488
227.858877 85.490 -21.4551
229.510036 85.468 -21.3646
231.173160 85.447 -21.2771
232.848336 85.425 -21.1926
234.535651 85.402 -21.1116
236.235193 85.377 -21.0332
237.947051 85.351 -20.9523
239.671313 85.322 -20.8590
241.408071 85.294 -20.7500
243.157413 85.266 -20.6341
244.919432 85.238 -20.5204
246.694219 85.211 -20.4085
248.481867 85.184 -20.2949
250.282469 85.157 -20.1777
252.096119 85.131 -20.0582
253.922911 85.106 -19.9384
255.762941 85.081 -19.8188
257.616305 85.056 -19.6981
259.483099 85.031 -19.5749
261.363421 85.007 -19.4493
263.257368 84.982 -19.3212
265.165039 84.958 -19.1895
267.086534 84.934 -19.0532
269.021953 84.910 -18.9133
270.971397 84.887 -18.7715
272.934968 84.864 -18.6288
274.912767 84.841 -18.4849
276.904898 84.819 -18.3404
278.911465 84.797 -18.1982
280.932573 84.776 -18.0610
282.968326 84.753 -17.9270
285.018831 84.731 -17.7905
287.084195 84.708 -17.6479
289.164526 84.685 -17.5010
291.259931 84.663 -17.3528
293.370520 84.642 -17.2040
295.496404 84.620 -17.0547
297.637693 84.598 -16.9033
299.794498 84.576 -16.7489
301.966933 84.554 -16.5922
304.155110 84.533 -16.4332
306.359143 84.512 -16.2726
308.579148 84.491 -16.1105
310.815239 84.471 -15.9480
313.067535 84.452 -15.7859
315.336151 84.432 -15.6252
317.621207 84.413 -15.4667
319.922821 84.393 -15.3097
322.241114 84.373 -15.1511
324.576206 84.353 -14.9879
326.928219 84.333 -14.8217
329.297275 84.314 -14.6554
331.683499 84.295 -14.4875
334.087014 84.277 -14.3165
336.507947 84.259 -14.1460
338.946422 84.241 -13.9775
341.402567 84.223 -13.8069
343.876511 84.205 -13.6324
346.368382 84.188 -13.4550
348.878310 84.171 -13.2766
351.406426 84.154 -13.0994
353.952862 84.138 -12.9229
356.517750 84.121 -12.7461
359.101225 84.104 -12.5676
361.703421 84.087 -12.3861
364.324473 84.071 -12.2021
366.964518 84.055 -12.0181
369.623694 84.039 -11.8343
372.302140 84.023 -11.6494
374.999995 84.007 -11.4622
377.717399 83.992 -11.2725
380.454495 83.977 -11.0811
383.211425 83.962 -10.8892
385.988333 83.947 -10.6974
388.785364 83.932 -10.5051
391.602663 83.918 -10.3124
394.440377 83.904 -10.1204
397.298655 83.890 -9.9299
400.177644 83.876 -9.7413
403.077497 83.861 -9.5538
405.998362 83.847 -9.3650
408.940394 83.832 -9.1729
411.903744 83.818 -8.9778
414.888569 83.805 -8.7795
417.895022 83.792 -8.5769
420.923262 83.779 -8.3694
423.973445 83.767 -8.1586
427.045732 83.756 -7.9458
430.140281 83.745 -7.7325
433.257255 83.734 -7.5208
436.396816 83.722 -7.3120
439.559127 83.710 -7.1047
442.744354 83.698 -6.8962
445.952662 83.686 -6.6860
449.184218 83.674 -6.4755
452.439192 83.663 -6.2645
455.717753 83.652 -6.0525
459.020072 83.642 -5.8400
462.346321 83.631 -5.6267
465.696673 83.621 -5.4116
469.071303 83.612 -5.1948
472.470387 83.602 -4.9769
475.894102 83.593 -4.7561
479.342627 83.584 -4.5315
482.816141 83.576 -4.3051
486.314826 83.567 -4.0793
489.838864 83.559 -3.8552
493.388438 83.551 -3.6318
496.963734 83.543 -3.4089
500.564938 83.535 -3.1856
504.192238 83.525 -2.9602
507.845823 83.516 -2.7324
511.525883 83.508 -2.5036
515.232610 83.499 -2.2729
518.966198 83.492 -2.0397
522.726841 83.485 -1.8060
526.514735 83.479 -1.5729
530.330078 83.472 -1.3380
534.173068 83.465 -1.0984
538.043907 83.459 -0.8547
541.942795 83.453 -0.6113
545.869936 83.447 -0.3715
549.825534 83.441 -0.1344
553.809797 83.435 0.1030
557.822931 83.429 0.3443
561.865146 83.423 0.5913
565.936652 83.418 0.8431
570.037662 83.414 1.0958
574.168390 83.409 1.3477
578.329051 83.404 1.5999
582.519862 83.400 1.8531
586.741041 83.395 2.1068
590.992808 83.391 2.3606
595.275386 83.387 2.6150
599.588997 83.383 2.8710
603.933866 83.379 3.1292
608.310219 83.376 3.3892
612.718286 83.374 3.6509
617.158295 83.372 3.9126
621.630479 83.369 4.1733
626.135069 83.367 4.4346
630.672302 83.364 4.6971
635.242414 83.361 4.9606
639.845642 83.359 5.2252
644.482227 83.356 5.4922
649.152411 83.354 5.7631
653.856437 83.352 6.0369
658.594551 83.350 6.3094
663.366998 83.348 6.5774
668.174029 83.345 6.8384
673.015893 83.342 7.0906
677.892844 83.337 7.3344
682.805135 83.331 7.5717
687.753022 83.322 7.8003
692.736764 83.310 8.0151
697.756620 83.290 8.2166
702.812853 83.260 8.4229
707.905724 83.217 8.6840
713.035501 83.162 9.0764
718.202450 83.109 9.6565
723.406841 83.070 10.3986
728.648945 83.055 11.2046
733.929036 83.061 11.9885
739.247388 83.079 12.7230
744.604279 83.106 13.4205
749.999989 83.138 14.0962
755.434798 83.176 14.7524
760.908990 83.223 15.3824
766.422850 83.277 15.9745
771.976666 83.339 16.5142
777.570727 83.406 16.9882
783.205325 83.474 17.3898
788.880754 83.541 17.7233
794.597309 83.604 18.0027
800.355289 83.662 18.2448
806.154993 83.714 18.4650
811.996725 83.761 18.6759
817.880788 83.804 18.8850
823.807489 83.844 19.0955
829.777138 83.882 19.3104
835.790045 83.916 19.5315
841.846524 83.950 19.7590
847.946891 83.982 19.9933
854.091464 84.014 20.2351
860.280562 84.045 20.4855
866.514510 84.077 20.7429
872.793631 84.109 21.0049
879.118254 84.141 21.2716
885.488707 84.174 21.5424
891.905323 84.207 21.8153
898.368437 84.241 22.0885
904.878385 84.276 22.3601
911.435507 84.311 22.6296
918.040144 84.348 22.9000
924.692641 84.385 23.1731
931.393345 84.423 23.4478
938.142606 84.462 23.7216
944.940774 84.502 23.9920
951.788204 84.543 24.2583
958.685254 84.584 24.5199
965.632282 84.627 24.7753
972.629652 84.670 25.0250
979.677727 84.715 25.2713
986.776876 84.761 25.5146
993.927468 84.808 25.7543
1001.129876 84.855 25.9876
1008.384476 84.903 26.2111
1015.691645 84.952 26.4236
1023.051766 85.001 26.6271
1030.465221 85.051 26.8244
1037.932396 85.102 27.0176
1045.453682 85.153 27.2056
1053.029471 85.205 27.3851
1060.660156 85.258 27.5538
1068.346137 85.312 27.7108
1076.087813 85.366 27.8575
1083.885589 85.421 27.9971
1091.739871 85.477 28.1307
1099.651068 85.533 28.2600
1107.619593 85.588 28.3846
1115.645861 85.644 28.5015
1123.730291 85.699 28.6092
1131.873304 85.754 28.7076
1140.075325 85.809 28.7961
1148.336780 85.864 28.8757
1156.658102 85.919 28.9484
1165.039724 85.974 29.0160
1173.482082 86.028 29.0799
1181.985617 86.082 29.1398
1190.550772 86.136 29.1927
1199.177993 86.190 29.2374
1207.867731 86.243 29.2747
1216.620439 86.296 29.3051
1225.436572 86.349 29.3299
1234.316591 86.402 29.3503
1243.260957 86.455 29.3658
1252.270139 86.508 29.3759
1261.344604 86.561 29.3830
1270.484827 86.614 29.3879
1279.691284 86.670 29.3897
1288.964455 86.728 29.3893
1298.304823 86.789 29.3880
1307.712874 86.851 29.3863
1317.189101 86.913 29.3827
1326.733996 86.974 29.3730
1336.348058 87.035 29.3551
1346.031787 87.095 29.3303
1355.785688 87.153 29.3028
1365.610270 87.210 29.2759
1375.506045 87.264 29.2510
1385.473529 87.317 29.2272
1395.513241 87.370 29.2022
1405.625705 87.422 29.1749
1415.811448 87.474 29.1447
1426.071002 87.525 29.1105
1436.404900 87.575 29.0724
1446.813682 87.625 29.0343
1457.297890 87.674 29.0002
1467.858072 87.723 28.9693
1478.494776 87.771 28.9380
1489.208559 87.819 28.9038
1499.999978 87.867 28.8672
1510.869596 87.914 28.8292
1521.817980 87.962 28.7895
1532.845701 88.011 28.7474
1543.953332 88.059 28.7035
1555.141455 88.107 28.6574
1566.410651 88.154 28.6072
1577.761508 88.202 28.5513
1589.194618 88.250 28.4874
1600.710578 88.298 28.4140
1612.309986 88.344 28.3323
1623.993449 88.390 28.2439
1635.761575 88.436 28.1502
1647.614978 88.480 28.0517
1659.554275 88.525 27.9475
1671.580089 88.568 27.8369
1683.693048 88.612 27.7218
1695.893782 88.655 27.6049
1708.182927 88.698 27.4852
1720.561125 88.740 27.3619
1733.029020 88.782 27.2352
1745.587263 88.823 27.1036
1758.236508 88.864 26.9666
1770.977414 88.905 26.8245
1783.810646 88.945 26.6775
1796.736874 88.984 26.5250
1809.756770 89.024 26.3688
1822.871013 89.064 26.2100
1836.080288 89.105 26.0464
1849.385283 89.145 25.8743
1862.786691 89.186 25.6932
1876.285211 89.227 25.5046
1889.881547 89.268 25.3102
1903.576408 89.310 25.1094
1917.370507 89.352 24.9014
1931.264564 89.393 24.6863
1945.259304 89.434 24.4638
1959.355454 89.475 24.2338
1973.553752 89.516 23.9963
1987.854936 89.556 23.7524
2002.259752 89.596 23.5022
2016.768952 89.635 23.2455
2031.383291 89.674 22.9814
2046.103531 89.712 22.7092
2060.930441 89.749 22.4287
2075.864793 89.785 22.1426
2090.907365 89.820 21.8516
2106.058941 89.854 21.5537
2121.320313 89.887 21.2478
2136.692274 89.919 20.9354
2152.175627 89.949 20.6189
2167.771179 89.979 20.3006
2183.479742 90.009 19.9802
2199.302137 90.038 19.6551
2215.239187 90.067 19.3232
2231.291723 90.094 18.9845
2247.460582 90.120 18.6388
2263.746608 90.144 18.2864
2280.150649 90.167 17.9276
2296.673561 90.188 17.5637
2313.316204 90.208 17.1976
2330.079447 90.226 16.8309
2346.964163 90.243 16.4616
2363.971233 90.258 16.0889
2381.101543 90.272 15.7141
2398.355986 90.284 15.3369
2415.735463 90.295 14.9562
2433.240878 90.305 14.5732
2450.873144 90.312 14.1906
2468.633181 90.318 13.8121
2486.521915 90.321 13.4407
2504.540278 90.322 13.0754
2522.689209 90.322 12.7123
2540.969655 90.321 12.3494
2559.382568 90.318 11.9894
2577.928909 90.313 11.6373
2596.609645 90.306 11.2986
2615.425749 90.298 10.9763
2634.378202 90.289 10.6711
2653.467992 90.281 10.3807
2672.696115 90.274 10.1002
2692.063573 90.268 9.8252
2711.571376 90.263 9.5533
2731.220539 90.259 9.2826
2751.012089 90.254 9.0111
2770.947057 90.250 8.7396
2791.026482 90.244 8.4692
2811.251410 90.238 8.1982
2831.622897 90.232 7.9298
2852.142003 90.225 7.6699
2872.809800 90.220 7.4182
2893.627364 90.215 7.1700
2914.595781 90.211 6.9213
2935.716143 90.208 6.6696
2956.989553 90.204 6.4148
2978.417118 90.201 6.1564
2999.999956 90.197 5.8931
3021.739192 90.192 5.6262
3043.635960 90.186 5.3560
3065.691401 90.181 5.0783
3087.906665 90.176 4.7885
3110.282909 90.170 4.4829
3132.821301 90.163 4.1573
3155.523016 90.153 3.8123
3178.389237 90.140 3.4540
3201.421155 90.122 3.0906
3224.619973 90.101 2.7283
3247.986898 90.078 2.3722
3271.523150 90.053 2.0294
3295.229956 90.030 1.7069
3319.108550 90.011 1.4059
3343.160179 89.998 1.1218
3367.386096 89.994 0.8507
3391.787563 89.999 0.5887
3416.365854 90.012 0.3260
3441.122250 90.031 0.0494
3466.058040 90.057 -0.2520
3491.174525 90.087 -0.5848
3516.473015 90.118 -0.9503
3541.954828 90.147 -1.3459
3567.621293 90.171 -1.7689
3593.473747 90.189 -2.2169
3619.513539 90.202 -2.6858
3645.742027 90.209 -3.1722
3672.160576 90.209 -3.6763
3698.770566 90.204 -4.2032
3725.573382 90.194 -4.7601
3752.570422 90.177 -5.3500
3779.763094 90.153 -5.9742
3807.152816 90.121 -6.6327
3834.741015 90.083 -7.3209
3862.529129 90.037 -8.0317
3890.518607 89.983 -8.7588
3918.710909 89.921 -9.4958
3947.107503 89.852 -10.2382
3975.709871 89.774 -10.9853
4004.519504 89.687 -11.7362
4033.537903 89.591 -12.4867
4062.766581 89.485 -13.2307
4092.207063 89.369 -13.9615
4121.860882 89.243 -14.6706
4151.729585 89.105 -15.3462
4181.814729 88.955 -15.9738
4212.117883 88.795 -16.5372
4242.640625 88.626 -17.0208
4273.384548 88.451 -17.4125
4304.351254 88.272 -17.7061
4335.542358 88.092 -17.8971
4366.959485 87.916 -17.9882
4398.604273 87.745 -17.9952
4430.478373 87.582 -17.9404
4462.583446 87.427 -17.8428
4494.921165 87.278 -17.7178
4527.493217 87.136 -17.5788
4560.301299 86.999 -17.4348
4593.347122 86.863 -17.2861
4626.632409 86.729 -17.1284
4660.158894 86.595 -16.9553
4693.928327 86.461 -16.7610
4727.942466 86.328 -16.5422
4762.203086 86.194 -16.2938
4796.711973 86.060 -16.0096
4831.470925 85.926 -15.6855
4866.481755 85.791 -15.3224
4901.746288 85.657 -14.9232
4937.266362 85.523 -14.4856
4973.043830 85.389 -14.0037
5009.080555 85.257 -13.4755
5045.378418 85.127 -12.9014
5081.939310 84.999 -12.2800
5118.765137 84.875 -11.6129
5155.857819 84.757 -10.9016
5193.219290 84.645 -10.1406
5230.851498 84.540 -9.3239
5268.756404 84.442 -8.4521
5306.935985 84.350 -7.5273
5345.392231 84.266 -6.5452
5384.127146 84.189 -5.5004
5423.142751 84.119 -4.3920
5462.441079 84.054 -3.2208
5502.024179 83.995 -1.9846
5541.894114 83.943 -0.6816
5582.052963 83.898 0.6827
5622.502820 83.861 2.0971
5663.245793 83.835 3.5497
5704.284007 83.823 5.0273
5745.619600 83.825 6.5150
5787.254728 83.843 7.9941
5829.191562 83.876 9.4393
5871.432287 83.923 10.8265
5913.979105 83.982 12.1392
5956.834236 84.053 13.3617
5999.999912 84.132 14.4785
6043.478385 84.218 15.4856
6087.271921 84.306 16.3907
6131.382802 84.393 17.2061
6175.813330 84.476 17.9460
6220.565819 84.555 18.6294
6265.642603 84.628 19.2759
6311.046032 84.695 19.9025
6356.778473 84.757 20.5262
6402.842310 84.816 21.1654
6449.239945 84.875 21.8340
6495.973796 84.935 22.5439
6543.046300 85.002 23.3019
6590.459911 85.080 24.1015
6638.217100 85.175 24.9095
6686.320358 85.288 25.6560
6734.772191 85.413 26.2553
6783.575127 85.532 26.6953
6832.731709 85.635 27.0979
6882.244499 85.731 27.6084
6932.116080 85.841 28.2589
6982.349051 85.981 28.9657
7032.946030 86.151 29.6129
7083.909656 86.346 30.1262
7135.242586 86.559 30.4814
7186.947495 86.784 30.6781
7239.027079 87.019 30.7230
7291.484053 87.265 30.6187
7344.321152 87.523 30.3552
7397.541131 87.794 29.9159
7451.146763 88.076 29.2834
7505.140844 88.371 28.4356
7559.526189 88.674 27.3461
7614.305632 88.980 25.9907
7669.482029 89.280 24.3478
7725.058258 89.563 22.4016
7781.037214 89.820 20.1487
7837.421817 90.039 17.6013
7894.215007 90.208 14.7881
7951.419743 90.313 11.7573
8009.039008 90.342 8.5775
8067.075806 90.287 5.3299
8125.533163 90.150 2.1039
8184.414126 89.936 -1.0095
8243.721764 89.653 -3.9275
8303.459170 89.308 -6.5793
8363.629458 88.912 -8.9114
8424.235765 88.477 -10.8906
8485.281250 88.016 -12.5031
8546.769096 87.540 -13.7507
8608.702508 87.059 -14.6490
8671.084715 86.579 -15.2191
8733.918969 86.106 -15.4830
8797.208547 85.644 -15.4655
8860.956746 85.196 -15.1936
8925.166891 84.765 -14.6924
8989.842330 84.350 -13.9844
9054.986433 83.954 -13.0908
9120.602598 83.577 -12.0269
9186.694244 83.223 -10.8063
9253.264817 82.893 -9.4446
9320.317788 82.589 -7.9545
9387.856653 82.313 -6.3491
9455.884932 82.066 -4.6464
9524.406173 81.852 -2.8651
9593.423946 81.672 -1.0269
9662.941850 81.523 0.8395
9732.963510 81.403 2.7039
9803.492576 81.307 4.5513
9874.532725 81.231 6.3853
9946.087659 81.173 8.2254
10018.161110 81.135 10.0997
10090.756835 81.121 12.0256
10163.878619 81.138 13.9966
10237.530273 81.191 15.9867
10311.715638 81.285 17.9578
10386.438580 81.422 19.8632
10461.702996 81.601 21.6592
10537.512808 81.823 23.3130
10613.871970 82.086 24.7958
10690.784461 82.391 26.0756
10768.254293 82.739 27.1122
10846.285502 83.131 27.8492
10924.882158 83.566 28.2119
11004.048358 84.041 28.1098
11083.788228 84.549 27.4404
11164.105927 85.077 26.0927
11245.005640 85.603 23.9605
11326.491587 86.099 20.9696
11408.568014 86.528 17.1042
11491.239200 86.853 12.4327
11574.509457 87.036 7.1226
11658.383123 87.051 1.4338
11742.864573 86.884 -4.3128
11827.958211 86.540 -9.7872
11913.668472 86.039 -14.7026
11999.999825 85.415 -18.8555
12086.956770 84.704 -22.1414
12174.543841 83.945 -24.5457
12262.765605 83.168 -26.1226
12351.626659 82.399 -26.9670
12441.131638 81.654 -27.1886
12531.285206 80.944 -26.9007
12622.092064 80.273 -26.2151
12713.556946 79.644 -25.2290
12805.684621 79.055 -24.0179
12898.479890 78.502 -22.6370
12991.947593 77.984 -21.1333
13086.092601 77.500 -19.5554
13180.919822 77.043 -17.9496
13276.434201 76.608 -16.3564
13372.640716 76.192 -14.8138
13469.544383 75.804 -13.3531
13567.150254 75.456 -12.0051
13665.463417 75.164 -10.8022
13764.488998 74.956 -9.7729
13864.232160 74.891 -8.9412
13964.698101 75.060 -8.3224
14065.892060 75.511 -7.9220
14167.819312 76.168 -7.7332
14270.485171 76.875 -7.7292
14373.894990 77.483 -7.8646
14478.054158 77.878 -8.0812
14582.968107 78.002 -8.3174
14688.642305 77.884 -8.5137
14795.082262 77.606 -8.6100
14902.293527 77.240 -8.5597
15010.281689 76.833 -8.3477
15119.052378 76.416 -7.9988
15228.611264 76.017 -7.5692
15338.964058 75.662 -7.1364
15450.116515 75.379 -6.7827
15562.074428 75.193 -6.5765
15674.843635 75.106 -6.5677
15788.430013 75.099 -6.7839
15902.839485 75.162 -7.2404
16018.078016 75.294 -7.9530
16134.151612 75.493 -8.9525
16251.066326 75.732 -10.3050
16368.828251 75.971 -12.1161
16487.443528 76.165 -14.5168
16606.918341 76.271 -17.6339
16727.258917 76.261 -21.5388
16848.471530 76.104 -26.1833
16970.562500 75.766 -31.3715
17093.538192 75.215 -36.7639
17217.405016 74.432 -41.9124
17342.169430 73.424 -46.3381
17467.837939 72.223 -49.6251
17594.417093 70.881 -51.4805
17721.913492 69.463 -51.7500
17850.333783 68.037 -50.3988
17979.684660 66.661 -47.5221
18109.972866 65.386 -43.3746
18241.205195 64.241 -38.3548
18373.388487 63.236 -32.9014
18506.529634 62.355 -27.3970
18640.635577 61.564 -21.9708
18775.713306 60.831 -16.4391
18911.769865 60.143 -10.6357
19048.812345 59.503 -4.6971
19186.847892 58.900 1.0652
19325.883701 58.315 6.5906
19465.927021 57.729 12.1474
19606.985152 57.146 17.9585
19749.065449 56.597 24.0088
19892.175318 56.144 29.8253
20036.322221 55.889 33.8507
