* Measurement data measured by REW V5.40 beta 105
* Source: Microphone (USB Multi-Channel Audio Device), MICROPHONE (Master Volume), L, volume: 0.490
* Format: 256k Log Swept Sine, 1 sweep at -6.0 dBFS with no timing reference
* Dated: Nov 19, 2025 8:59:52 PM
* REW Settings:
*  C-weighting compensation: Off
*  Target level: 75.0 dB
* Note: ; 
* Measurement: Duonic Silver L
* Smoothing: 1/24 octave
* Frequency Step: 96 ppo
* Start Frequency: 20.0 Hz
*
* Freq(Hz) SPL(dB) Phase(degrees)
19.995176 85.641 -130.7788
20.140070 85.659 -131.1583
20.286013 85.677 -131.5337
20.433014 85.695 -131.9048
20.581080 85.712 -132.2713
20.730219 85.728 -132.6329
20.880438 85.745 -132.9894
21.031747 85.761 -133.3405
21.184151 85.777 -133.6862
21.337660 85.793 -134.0262
21.492282 85.809 -134.3606
21.648024 85.826 -134.6897
21.804894 85.843 -135.0135
21.962902 85.861 -135.3327
22.122054 85.880 -135.6479
22.282359 85.899 -135.9598
22.443827 85.919 -136.2696
22.606464 85.940 -136.5783
22.770280 85.962 -136.8873
22.935282 85.985 -137.1979
23.101481 86.009 -137.5116
23.268884 86.034 -137.8299
23.437500 86.059 -138.1541
23.607337 86.085 -138.4855
23.778406 86.111 -138.8249
23.950714 86.138 -139.1733
24.124271 86.164 -139.5308
24.299085 86.190 -139.8976
24.475166 86.215 -140.2733
24.652524 86.239 -140.6572
24.831166 86.262 -141.0481
25.011103 86.283 -141.4447
25.192344 86.303 -141.8454
25.374898 86.321 -142.2482
25.558775 86.337 -142.6515
25.743984 86.352 -143.0533
25.930536 86.365 -143.4520
26.118439 86.377 -143.8459
26.307704 86.387 -144.2339
26.498340 86.397 -144.6152
26.690358 86.406 -144.9893
26.883768 86.415 -145.3560
27.078578 86.423 -145.7157
27.274801 86.431 -146.0690
27.472445 86.439 -146.4168
27.671522 86.446 -146.7602
27.872041 86.454 -147.1003
28.074014 86.463 -147.4382
28.277450 86.471 -147.7751
28.482360 86.480 -148.1118
28.688755 86.488 -148.4491
28.896645 86.497 -148.7872
29.106042 86.505 -149.1265
29.316956 86.513 -149.4667
29.529399 86.521 -149.8074
29.743381 86.528 -150.1483
29.958914 86.534 -150.4884
30.176009 86.539 -150.8273
30.394677 86.544 -151.1639
30.614929 86.548 -151.4977
30.836777 86.551 -151.8280
31.060233 86.554 -152.1543
31.285309 86.556 -152.4762
31.512015 86.558 -152.7935
31.740364 86.560 -153.1060
31.970368 86.562 -153.4137
32.202038 86.564 -153.7170
32.435387 86.566 -154.0159
32.670428 86.567 -154.3109
32.907171 86.569 -154.6024
33.145630 86.571 -154.8909
33.385817 86.573 -155.1767
33.627744 86.576 -155.4605
33.871425 86.579 -155.7426
34.116871 86.582 -156.0236
34.364096 86.585 -156.3039
34.613112 86.588 -156.5837
34.863933 86.591 -156.8634
35.116572 86.594 -157.1432
35.371041 86.597 -157.4231
35.627354 86.600 -157.7032
35.885524 86.602 -157.9835
36.145566 86.605 -158.2638
36.407491 86.608 -158.5442
36.671315 86.610 -158.8245
36.937051 86.612 -159.1045
37.204712 86.614 -159.3843
37.474312 86.615 -159.6638
37.745867 86.616 -159.9429
38.019389 86.617 -160.2216
38.294893 86.618 -160.4996
38.572393 86.619 -160.7770
38.851905 86.619 -161.0534
39.133442 86.618 -161.3285
39.417019 86.618 -161.6019
39.702651 86.617 -161.8730
39.990353 86.615 -162.1415
40.280139 86.613 -162.4070
40.572026 86.610 -162.6691
40.866027 86.607 -162.9278
41.162159 86.604 -163.1830
41.460437 86.602 -163.4350
41.760877 86.600 -163.6844
42.063493 86.598 -163.9316
42.368303 86.596 -164.1775
42.675321 86.594 -164.4228
42.984564 86.593 -164.6681
43.296048 86.591 -164.9140
43.609789 86.590 -165.1607
43.925803 86.588 -165.4084
44.244108 86.587 -165.6569
44.564719 86.585 -165.9055
44.887653 86.582 -166.1536
45.212928 86.579 -166.4003
45.540559 86.576 -166.6448
45.870565 86.572 -166.8862
46.202962 86.568 -167.1240
46.537767 86.564 -167.3580
46.874999 86.559 -167.5883
47.214675 86.556 -167.8152
47.556812 86.552 -168.0395
47.901428 86.548 -168.2619
48.248542 86.545 -168.4832
48.598170 86.541 -168.7042
48.950333 86.538 -168.9254
49.305047 86.535 -169.1474
49.662332 86.532 -169.3703
50.022206 86.529 -169.5943
50.384687 86.525 -169.8193
50.749795 86.522 -170.0453
51.117549 86.519 -170.2720
51.487968 86.515 -170.4993
51.861071 86.511 -170.7267
52.236878 86.506 -170.9537
52.615408 86.502 -171.1798
52.996681 86.497 -171.4045
53.380716 86.492 -171.6271
53.767535 86.487 -171.8472
54.157157 86.482 -172.0644
54.549602 86.476 -172.2788
54.944891 86.470 -172.4902
55.343044 86.463 -172.6988
55.744083 86.456 -172.9048
56.148027 86.450 -173.1084
56.554899 86.445 -173.3100
56.964719 86.441 -173.5100
57.377509 86.436 -173.7089
57.793290 86.432 -173.9075
58.212084 86.428 -174.1067
58.633913 86.423 -174.3069
59.058798 86.419 -174.5090
59.486763 86.413 -174.7130
59.917828 86.408 -174.9189
60.352018 86.401 -175.1262
60.789353 86.394 -175.3342
61.229858 86.386 -175.5421
61.673555 86.376 -175.7490
62.120467 86.366 -175.9543
62.570617 86.355 -176.1572
63.024030 86.345 -176.3578
63.480728 86.338 -176.5560
63.940735 86.331 -176.7525
64.404076 86.325 -176.9478
64.870775 86.318 -177.1427
65.340855 86.310 -177.3375
65.814342 86.300 -177.5322
66.291260 86.290 -177.7264
66.771634 86.279 -177.9195
67.255488 86.269 -178.1113
67.742849 86.260 -178.3021
68.233742 86.252 -178.4927
68.728192 86.244 -178.6847
69.226225 86.237 -178.8796
69.727866 86.230 -179.0785
70.233143 86.222 -179.2818
70.742082 86.215 -179.4886
71.254708 86.207 -179.6973
71.771049 86.198 -179.9056
72.291131 86.189 179.8891
72.814983 86.178 179.6886
73.342630 86.166 179.4942
73.874101 86.153 179.3061
74.409423 86.139 179.1239
74.948625 86.126 178.9467
75.491733 86.112 178.7733
76.038777 86.099 178.6024
76.589786 86.087 178.4330
77.144787 86.074 178.2644
77.703810 86.061 178.0963
78.266884 86.048 177.9294
78.834038 86.035 177.7651
79.405302 86.022 177.6059
79.980705 86.011 177.4538
80.560278 86.001 177.3085
81.144051 85.995 177.1653
81.732055 85.992 177.0139
82.324319 85.992 176.8409
82.920875 85.991 176.6357
83.521754 85.989 176.3962
84.126987 85.981 176.1322
84.736605 85.967 175.8619
85.350642 85.947 175.6051
85.969128 85.924 175.3755
86.592096 85.899 175.1771
87.219578 85.876 175.0045
87.851607 85.855 174.8475
88.488216 85.837 174.6949
89.129438 85.820 174.5383
89.775306 85.804 174.3726
90.425855 85.787 174.1962
91.081118 85.767 174.0102
91.741129 85.745 173.8182
92.405924 85.721 173.6272
93.075535 85.694 173.4480
93.749999 85.665 173.2943
94.429350 85.637 173.1765
95.113624 85.611 173.0939
95.802856 85.590 173.0292
96.497083 85.576 172.9542
97.196341 85.566 172.8429
97.900666 85.557 172.6860
98.610094 85.545 172.4940
99.324664 85.529 172.2891
100.044411 85.508 172.0924
100.769374 85.485 171.9167
101.499591 85.460 171.7657
102.235098 85.436 171.6385
102.975936 85.413 171.5327
103.722142 85.392 171.4459
104.473756 85.374 171.3754
105.230815 85.358 171.3171
105.993361 85.347 171.2631
106.761433 85.341 171.2008
107.535070 85.340 171.1140
108.314314 85.341 170.9890
109.099204 85.342 170.8218
109.889782 85.340 170.6216
110.686088 85.335 170.4057
111.488165 85.326 170.1907
112.296055 85.314 169.9853
113.109798 85.302 169.7897
113.929438 85.290 169.5989
114.755018 85.278 169.4059
115.586580 85.265 169.2051
116.424168 85.251 168.9937
117.267826 85.235 168.7734
118.117597 85.215 168.5510
118.973525 85.193 168.3372
119.835657 85.168 168.1414
120.704035 85.142 167.9680
121.578706 85.116 167.8137
122.459716 85.091 167.6707
123.347109 85.067 167.5314
124.240933 85.043 167.3905
125.141234 85.019 167.2469
126.048059 84.994 167.1020
126.961456 84.968 166.9587
127.881471 84.942 166.8199
128.808153 84.915 166.6882
129.741550 84.889 166.5650
130.681710 84.863 166.4500
131.628684 84.838 166.3395
132.582520 84.815 166.2275
133.543267 84.794 166.1064
134.510977 84.773 165.9691
135.485699 84.751 165.8146
136.467484 84.727 165.6522
137.456384 84.701 165.4969
138.452449 84.673 165.3575
139.455733 84.646 165.2305
140.466286 84.620 165.1085
141.484163 84.594 164.9901
142.509416 84.567 164.8818
143.542098 84.542 164.7888
144.582263 84.520 164.7034
145.629965 84.500 164.6077
146.685260 84.481 164.4870
147.748202 84.461 164.3401
148.818846 84.438 164.1772
149.897249 84.411 164.0122
150.983466 84.380 163.8572
152.077555 84.348 163.7192
153.179572 84.316 163.5991
154.289574 84.284 163.4907
155.407620 84.254 163.3840
156.533767 84.224 163.2687
157.668076 84.194 163.1394
158.810603 84.161 163.0020
159.961411 84.126 162.8792
161.120557 84.091 162.7974
162.288103 84.061 162.7563
163.464109 84.040 162.7200
164.648638 84.026 162.6494
165.841750 84.015 162.5386
167.043507 84.001 162.4118
168.253973 83.983 162.2949
169.473211 83.959 162.1981
170.701284 83.927 162.1193
171.938256 83.888 162.0527
173.184191 83.842 161.9944
174.439155 83.788 161.9425
175.703213 83.726 161.8964
176.976431 83.657 161.8548
178.258875 83.586 161.8152
179.550613 83.516 161.7753
180.851710 83.450 161.7356
182.162236 83.391 161.6982
183.482259 83.338 161.6632
184.811847 83.291 161.6285
186.151070 83.251 161.5911
187.499997 83.216 161.5501
188.858700 83.183 161.5078
190.227248 83.150 161.4684
191.605713 83.118 161.4353
192.994167 83.085 161.4091
194.392682 83.053 161.3897
195.801331 83.020 161.3777
197.220189 82.989 161.3733
198.649327 82.957 161.3744
200.088822 82.925 161.3780
201.538748 82.892 161.3828
202.999181 82.859 161.3908
204.470197 82.824 161.4049
205.951872 82.788 161.4267
207.444284 82.751 161.4559
208.947511 82.714 161.4913
210.461631 82.677 161.5341
211.986723 82.641 161.5856
213.522866 82.605 161.6389
215.070141 82.570 161.6823
216.628627 82.534 161.7148
218.198408 82.495 161.7490
219.779563 82.455 161.7965
221.372177 82.415 161.8572
222.976331 82.376 161.9247
224.592109 82.338 161.9944
226.219596 82.300 162.0648
227.858877 82.263 162.1353
229.510036 82.225 162.2057
231.173160 82.188 162.2774
232.848336 82.152 162.3515
234.535651 82.116 162.4232
236.235193 82.081 162.4842
237.947051 82.045 162.5337
239.671313 82.006 162.5823
241.408071 81.966 162.6414
243.157413 81.925 162.7153
244.919432 81.883 162.8029
246.694219 81.841 162.9008
248.481867 81.798 163.0061
250.282469 81.756 163.1168
252.096119 81.714 163.2312
253.922911 81.673 163.3481
255.762941 81.632 163.4663
257.616305 81.592 163.5852
259.483099 81.552 163.7072
261.363421 81.511 163.8372
263.257368 81.471 163.9770
265.165039 81.432 164.1247
267.086534 81.392 164.2773
269.021953 81.353 164.4344
270.971397 81.314 164.5975
272.934968 81.275 164.7661
274.912767 81.237 164.9368
276.904898 81.199 165.1086
278.911465 81.161 165.2838
280.932573 81.123 165.4665
282.968326 81.087 165.6582
285.018831 81.051 165.8571
287.084195 81.016 166.0599
289.164526 80.981 166.2655
291.259931 80.947 166.4754
293.370520 80.913 166.6893
295.496404 80.879 166.9041
297.637693 80.846 167.1179
299.794498 80.812 167.3328
301.966933 80.778 167.5508
304.155110 80.745 167.7720
306.359143 80.713 167.9955
308.579148 80.681 168.2221
310.815239 80.650 168.4541
313.067535 80.620 168.6923
315.336151 80.590 168.9365
317.621207 80.560 169.1866
319.922821 80.531 169.4400
322.241114 80.503 169.6919
324.576206 80.476 169.9402
326.928219 80.450 170.1888
329.297275 80.425 170.4410
331.683499 80.401 170.6973
334.087014 80.378 170.9565
336.507947 80.355 171.2177
338.946422 80.333 171.4788
341.402567 80.310 171.7390
343.876511 80.287 171.9996
346.368382 80.264 172.2649
348.878310 80.242 172.5361
351.406426 80.221 172.8083
353.952862 80.201 173.0776
356.517750 80.182 173.3474
359.101225 80.163 173.6219
361.703421 80.145 173.9018
364.324473 80.128 174.1858
366.964518 80.111 174.4718
369.623694 80.095 174.7559
372.302140 80.080 175.0358
374.999995 80.065 175.3127
377.717399 80.050 175.5880
380.454495 80.036 175.8626
383.211425 80.022 176.1392
385.988333 80.009 176.4209
388.785364 79.997 176.7098
391.602663 79.985 177.0043
394.440377 79.975 177.2986
397.298655 79.966 177.5860
400.177644 79.956 177.8665
403.077497 79.945 178.1459
405.998362 79.934 178.4290
408.940394 79.923 178.7173
411.903744 79.912 179.0085
414.888569 79.903 179.2985
417.895022 79.894 179.5872
420.923262 79.886 179.8789
423.973445 79.879 -179.8238
427.045732 79.872 -179.5222
430.140281 79.867 -179.2174
433.257255 79.862 -178.9115
436.396816 79.859 -178.6083
439.559127 79.855 -178.3086
442.744354 79.852 -178.0109
445.952662 79.848 -177.7152
449.184218 79.845 -177.4216
452.439192 79.843 -177.1285
455.717753 79.842 -176.8328
459.020072 79.842 -176.5314
462.346321 79.844 -176.2227
465.696673 79.847 -175.9098
469.071303 79.852 -175.5986
472.470387 79.857 -175.2957
475.894102 79.863 -175.0059
479.342627 79.869 -174.7292
482.816141 79.875 -174.4620
486.314826 79.881 -174.2009
489.838864 79.887 -173.9436
493.388438 79.894 -173.6897
496.963734 79.900 -173.4387
500.564938 79.905 -173.1880
504.192238 79.910 -172.9359
507.845823 79.915 -172.6821
511.525883 79.919 -172.4296
515.232610 79.924 -172.1852
518.966198 79.929 -171.9488
522.726841 79.933 -171.7136
526.514735 79.936 -171.4769
530.330078 79.940 -171.2394
534.173068 79.943 -170.9988
538.043907 79.945 -170.7508
541.942795 79.947 -170.4943
545.869936 79.950 -170.2325
549.825534 79.952 -169.9700
553.809797 79.954 -169.7071
557.822931 79.957 -169.4416
561.865146 79.960 -169.1735
565.936652 79.963 -168.9045
570.037662 79.966 -168.6368
574.168390 79.970 -168.3718
578.329051 79.974 -168.1073
582.519862 79.979 -167.8392
586.741041 79.984 -167.5656
590.992808 79.989 -167.2884
595.275386 79.994 -167.0097
599.588997 79.999 -166.7288
603.933866 80.004 -166.4446
608.310219 80.010 -166.1570
612.718286 80.017 -165.8679
617.158295 80.025 -165.5797
621.630479 80.033 -165.2940
626.135069 80.040 -165.0105
630.672302 80.047 -164.7258
635.242414 80.055 -164.4388
639.845642 80.064 -164.1530
644.482227 80.074 -163.8682
649.152411 80.083 -163.5819
653.856437 80.092 -163.2917
658.594551 80.101 -162.9973
663.366998 80.109 -162.6978
668.174029 80.118 -162.3942
673.015893 80.128 -162.0896
677.892844 80.138 -161.7847
682.805135 80.149 -161.4781
687.753022 80.162 -161.1692
692.736764 80.174 -160.8600
697.756620 80.187 -160.5526
702.812853 80.200 -160.2460
707.905724 80.212 -159.9360
713.035501 80.224 -159.6198
718.202450 80.236 -159.2970
723.406841 80.249 -158.9674
728.648945 80.263 -158.6330
733.929036 80.277 -158.2984
739.247388 80.292 -157.9665
744.604279 80.308 -157.6360
749.999989 80.324 -157.3052
755.434798 80.341 -156.9749
760.908990 80.359 -156.6448
766.422850 80.379 -156.3122
771.976666 80.398 -155.9747
777.570727 80.419 -155.6343
783.205325 80.440 -155.2926
788.880754 80.461 -154.9484
794.597309 80.483 -154.6017
800.355289 80.506 -154.2529
806.154993 80.529 -153.9020
811.996725 80.553 -153.5515
817.880788 80.578 -153.2020
823.807489 80.603 -152.8509
829.777138 80.630 -152.4986
835.790045 80.657 -152.1479
841.846524 80.686 -151.7989
847.946891 80.716 -151.4510
854.091464 80.746 -151.1058
860.280562 80.777 -150.7613
866.514510 80.809 -150.4140
872.793631 80.842 -150.0638
879.118254 80.877 -149.7127
885.488707 80.913 -149.3625
891.905323 80.950 -149.0132
898.368437 80.988 -148.6687
904.878385 81.028 -148.3334
911.435507 81.068 -148.0042
918.040144 81.110 -147.6754
924.692641 81.154 -147.3488
931.393345 81.198 -147.0298
938.142606 81.243 -146.7192
944.940774 81.289 -146.4127
951.788204 81.335 -146.1087
958.685254 81.383 -145.8101
965.632282 81.433 -145.5236
972.629652 81.485 -145.2528
979.677727 81.538 -144.9977
986.776876 81.593 -144.7626
993.927468 81.649 -144.5560
1001.129876 81.706 -144.3860
1008.384476 81.761 -144.2571
1015.691645 81.814 -144.1710
1023.051766 81.862 -144.1315
1030.465221 81.901 -144.1367
1037.932396 81.926 -144.1674
1045.453682 81.934 -144.1751
1053.029471 81.927 -144.0914
1060.660156 81.912 -143.8591
1068.346137 81.902 -143.4674
1076.087813 81.906 -142.9560
1083.885589 81.927 -142.3893
1091.739871 81.966 -141.8212
1099.651068 82.018 -141.2827
1107.619593 82.080 -140.7858
1115.645861 82.148 -140.3309
1123.730291 82.222 -139.9159
1131.873304 82.300 -139.5410
1140.075325 82.382 -139.2070
1148.336780 82.466 -138.9152
1156.658102 82.553 -138.6686
1165.039724 82.639 -138.4699
1173.482082 82.724 -138.3198
1181.985617 82.806 -138.2135
1190.550772 82.883 -138.1405
1199.177993 82.956 -138.0891
1207.867731 83.025 -138.0469
1216.620439 83.092 -138.0067
1225.436572 83.155 -137.9663
1234.316591 83.216 -137.9227
1243.260957 83.275 -137.8728
1252.270139 83.332 -137.8158
1261.344604 83.389 -137.7547
1270.484827 83.446 -137.6927
1279.691284 83.505 -137.6303
1288.964455 83.567 -137.5677
1298.304823 83.631 -137.5048
1307.712874 83.697 -137.4400
1317.189101 83.764 -137.3723
1326.733996 83.830 -137.3009
1336.348058 83.894 -137.2239
1346.031787 83.957 -137.1420
1355.785688 84.019 -137.0580
1365.610270 84.079 -136.9722
1375.506045 84.137 -136.8833
1385.473529 84.194 -136.7902
1395.513241 84.252 -136.6934
1405.625705 84.310 -136.5958
1415.811448 84.368 -136.4984
1426.071002 84.427 -136.3997
1436.404900 84.486 -136.2985
1446.813682 84.545 -136.1938
1457.297890 84.604 -136.0855
1467.858072 84.664 -135.9734
1478.494776 84.724 -135.8587
1489.208559 84.785 -135.7451
1499.999978 84.847 -135.6360
1510.869596 84.909 -135.5294
1521.817980 84.972 -135.4253
1532.845701 85.037 -135.3279
1543.953332 85.102 -135.2412
1555.141455 85.169 -135.1678
1566.410651 85.236 -135.1077
1577.761508 85.302 -135.0586
1589.194618 85.367 -135.0192
1600.710578 85.431 -134.9875
1612.309986 85.493 -134.9584
1623.993449 85.555 -134.9271
1635.761575 85.616 -134.8930
1647.614978 85.676 -134.8586
1659.554275 85.737 -134.8257
1671.580089 85.798 -134.7966
1683.693048 85.860 -134.7720
1695.893782 85.922 -134.7520
1708.182927 85.985 -134.7364
1720.561125 86.048 -134.7228
1733.029020 86.110 -134.7083
1745.587263 86.174 -134.6938
1758.236508 86.237 -134.6811
1770.977414 86.301 -134.6715
1783.810646 86.365 -134.6676
1796.736874 86.430 -134.6718
1809.756770 86.496 -134.6854
1822.871013 86.564 -134.7070
1836.080288 86.633 -134.7364
1849.385283 86.703 -134.7761
1862.786691 86.774 -134.8255
1876.285211 86.846 -134.8812
1889.881547 86.919 -134.9437
1903.576408 86.992 -135.0132
1917.370507 87.066 -135.0894
1931.264564 87.140 -135.1745
1945.259304 87.216 -135.2699
1959.355454 87.293 -135.3769
1973.553752 87.371 -135.4991
1987.854936 87.450 -135.6362
2002.259752 87.529 -135.7841
2016.768952 87.609 -135.9417
2031.383291 87.689 -136.1104
2046.103531 87.769 -136.2933
2060.930441 87.849 -136.4926
2075.864793 87.928 -136.7058
2090.907365 88.008 -136.9323
2106.058941 88.088 -137.1744
2121.320313 88.167 -137.4326
2136.692274 88.247 -137.7085
2152.175627 88.328 -138.0025
2167.771179 88.408 -138.3125
2183.479742 88.487 -138.6381
2199.302137 88.566 -138.9792
2215.239187 88.643 -139.3359
2231.291723 88.719 -139.7095
2247.460582 88.793 -140.1011
2263.746608 88.866 -140.5105
2280.150649 88.937 -140.9373
2296.673561 89.006 -141.3815
2313.316204 89.073 -141.8421
2330.079447 89.139 -142.3176
2346.964163 89.203 -142.8079
2363.971233 89.264 -143.3123
2381.101543 89.323 -143.8296
2398.355986 89.379 -144.3589
2415.735463 89.432 -144.8998
2433.240878 89.484 -145.4530
2450.873144 89.533 -146.0213
2468.633181 89.579 -146.6063
2486.521915 89.622 -147.2069
2504.540278 89.662 -147.8201
2522.689209 89.696 -148.4416
2540.969655 89.726 -149.0679
2559.382568 89.751 -149.6966
2577.928909 89.771 -150.3243
2596.609645 89.785 -150.9449
2615.425749 89.794 -151.5504
2634.378202 89.799 -152.1326
2653.467992 89.801 -152.6876
2672.696115 89.801 -153.2126
2692.063573 89.801 -153.7053
2711.571376 89.801 -154.1670
2731.220539 89.804 -154.6044
2751.012089 89.811 -155.0280
2770.947057 89.823 -155.4523
2791.026482 89.840 -155.8972
2811.251410 89.860 -156.3799
2831.622897 89.880 -156.9118
2852.142003 89.898 -157.4967
2872.809800 89.909 -158.1282
2893.627364 89.912 -158.7945
2914.595781 89.904 -159.4783
2935.716143 89.885 -160.1612
2956.989553 89.857 -160.8290
2978.417118 89.821 -161.4691
2999.999956 89.777 -162.0716
3021.739192 89.728 -162.6303
3043.635960 89.673 -163.1399
3065.691401 89.615 -163.5982
3087.906665 89.554 -164.0059
3110.282909 89.492 -164.3666
3132.821301 89.430 -164.6865
3155.523016 89.369 -164.9727
3178.389237 89.309 -165.2317
3201.421155 89.252 -165.4684
3224.619973 89.198 -165.6852
3247.986898 89.148 -165.8861
3271.523150 89.102 -166.0770
3295.229956 89.062 -166.2611
3319.108550 89.028 -166.4406
3343.160179 89.000 -166.6204
3367.386096 88.979 -166.8073
3391.787563 88.965 -167.0021
3416.365854 88.955 -167.2006
3441.122250 88.948 -167.3973
3466.058040 88.945 -167.5877
3491.174525 88.946 -167.7709
3516.473015 88.949 -167.9491
3541.954828 88.952 -168.1253
3567.621293 88.956 -168.3074
3593.473747 88.958 -168.5078
3619.513539 88.957 -168.7369
3645.742027 88.950 -169.0003
3672.160576 88.935 -169.2975
3698.770566 88.910 -169.6261
3725.573382 88.874 -169.9800
3752.570422 88.826 -170.3433
3779.763094 88.766 -170.6961
3807.152816 88.695 -171.0210
3834.741015 88.614 -171.2977
3862.529129 88.525 -171.5077
3890.518607 88.431 -171.6362
3918.710909 88.334 -171.6755
3947.107503 88.239 -171.6288
3975.709871 88.147 -171.5053
4004.519504 88.062 -171.3171
4033.537903 87.985 -171.0809
4062.766581 87.916 -170.8141
4092.207063 87.855 -170.5296
4121.860882 87.803 -170.2370
4151.729585 87.758 -169.9411
4181.814729 87.719 -169.6419
4212.117883 87.687 -169.3381
4242.640625 87.660 -169.0313
4273.384548 87.641 -168.7279
4304.351254 87.628 -168.4343
4335.542358 87.622 -168.1585
4366.959485 87.622 -167.9067
4398.604273 87.629 -167.6811
4430.478373 87.639 -167.4818
4462.583446 87.652 -167.3094
4494.921165 87.668 -167.1644
4527.493217 87.686 -167.0463
4560.301299 87.706 -166.9534
4593.347122 87.726 -166.8828
4626.632409 87.748 -166.8315
4660.158894 87.771 -166.7983
4693.928327 87.796 -166.7840
4727.942466 87.823 -166.7901
4762.203086 87.852 -166.8181
4796.711973 87.883 -166.8726
4831.470925 87.913 -166.9564
4866.481755 87.943 -167.0671
4901.746288 87.972 -167.2025
4937.266362 87.997 -167.3616
4973.043830 88.019 -167.5441
5009.080555 88.039 -167.7470
5045.378418 88.055 -167.9646
5081.939310 88.070 -168.1926
5118.765137 88.084 -168.4278
5155.857819 88.097 -168.6664
5193.219290 88.111 -168.9055
5230.851498 88.124 -169.1425
5268.756404 88.137 -169.3745
5306.935985 88.150 -169.6012
5345.392231 88.162 -169.8232
5384.127146 88.172 -170.0372
5423.142751 88.179 -170.2405
5462.441079 88.182 -170.4352
5502.024179 88.178 -170.6227
5541.894114 88.168 -170.7982
5582.052963 88.148 -170.9557
5622.502820 88.119 -171.0890
5663.245793 88.081 -171.1941
5704.284007 88.036 -171.2680
5745.619600 87.986 -171.3095
5787.254728 87.931 -171.3194
5829.191562 87.870 -171.2979
5871.432287 87.805 -171.2440
5913.979105 87.737 -171.1586
5956.834236 87.668 -171.0419
5999.999912 87.599 -170.8887
6043.478385 87.532 -170.6958
6087.271921 87.468 -170.4672
6131.382802 87.406 -170.2075
6175.813330 87.348 -169.9200
6220.565819 87.295 -169.6084
6265.642603 87.245 -169.2719
6311.046032 87.199 -168.9079
6356.778473 87.158 -168.5164
6402.842310 87.123 -168.1022
6449.239945 87.093 -167.6738
6495.973796 87.070 -167.2361
6543.046300 87.052 -166.7883
6590.459911 87.042 -166.3291
6638.217100 87.040 -165.8601
6686.320358 87.046 -165.3879
6734.772191 87.062 -164.9239
6783.575127 87.088 -164.4769
6832.731709 87.123 -164.0486
6882.244499 87.169 -163.6453
6932.116080 87.226 -163.2787
6982.349051 87.294 -162.9586
7032.946030 87.373 -162.6925
7083.909656 87.464 -162.4862
7135.242586 87.567 -162.3495
7186.947495 87.683 -162.2970
7239.027079 87.812 -162.3434
7291.484053 87.953 -162.5097
7344.321152 88.109 -162.8185
7397.541131 88.276 -163.2857
7451.146763 88.455 -163.9290
7505.140844 88.644 -164.7694
7559.526189 88.839 -165.8202
7614.305632 89.033 -167.0903
7669.482029 89.218 -168.5864
7725.058258 89.386 -170.3106
7781.037214 89.529 -172.2570
7837.421817 89.639 -174.4085
7894.215007 89.707 -176.7354
7951.419743 89.724 -179.1995
8009.039008 89.680 178.2447
8067.075806 89.569 175.6483
8125.533163 89.393 173.0702
8184.414126 89.155 170.5757
8243.721764 88.861 168.2265
8303.459170 88.516 166.0754
8363.629458 88.127 164.1657
8424.235765 87.703 162.5294
8485.281250 87.255 161.1880
8546.769096 86.791 160.1471
8608.702508 86.319 159.3984
8671.084715 85.846 158.9291
8733.918969 85.377 158.7202
8797.208547 84.915 158.7466
8860.956746 84.463 158.9869
8925.166891 84.022 159.4250
8989.842330 83.590 160.0455
9054.986433 83.170 160.8363
9120.602598 82.761 161.7930
9186.694244 82.367 162.9076
9253.264817 81.992 164.1650
9320.317788 81.637 165.5481
9387.856653 81.303 167.0405
9455.884932 80.989 168.6307
9524.406173 80.697 170.3124
9593.423946 80.426 172.0770
9662.941850 80.175 173.9175
9732.963510 79.945 175.8324
9803.492576 79.734 177.8178
9874.532725 79.541 179.8708
9946.087659 79.369 -178.0093
10018.161110 79.217 -175.8332
10090.756835 79.087 -173.6100
10163.878619 78.977 -171.3449
10237.530273 78.890 -169.0459
10311.715638 78.825 -166.7196
10386.438580 78.783 -164.3682
10461.702996 78.766 -161.9967
10537.512808 78.774 -159.6094
10613.871970 78.808 -157.2122
10690.784461 78.867 -154.8131
10768.254293 78.953 -152.4164
10846.285502 79.067 -150.0264
10924.882158 79.211 -147.6470
11004.048358 79.386 -145.2815
11083.788228 79.594 -142.9449
11164.105927 79.837 -140.6517
11245.005640 80.118 -138.4124
11326.491587 80.440 -136.2427
11408.568014 80.807 -134.1628
11491.239200 81.224 -132.2044
11574.509457 81.696 -130.4116
11658.383123 82.228 -128.8408
11742.864573 82.828 -127.5712
11827.958211 83.498 -126.7102
11913.668472 84.242 -126.4020
11999.999825 85.053 -126.8272
12086.956770 85.919 -128.1803
12174.543841 86.816 -130.6523
12262.765605 87.709 -134.4387
12351.626659 88.545 -139.7388
12441.131638 89.238 -146.6402
12531.285206 89.693 -154.9489
12622.092064 89.833 -164.1367
12713.556946 89.625 -173.4454
12805.684621 89.083 177.9106
12898.479890 88.268 170.5423
12991.947593 87.263 164.7766
13086.092601 86.156 160.6643
13180.919822 85.020 158.0569
13276.434201 83.905 156.7008
13372.640716 82.846 156.3181
13469.544383 81.866 156.6573
13567.150254 80.982 157.5161
13665.463417 80.213 158.7414
13764.488998 79.587 160.2108
13864.232160 79.165 161.8224
13964.698101 79.045 163.4957
14065.892060 79.298 165.1677
14167.819312 79.857 166.7844
14270.485171 80.553 168.2932
14373.894990 81.222 169.6475
14478.054158 81.738 170.8037
14582.968107 82.044 171.7095
14688.642305 82.172 172.3107
14795.082262 82.200 172.5602
14902.293527 82.185 172.4095
15010.281689 82.156 171.8152
15119.052378 82.118 170.7463
15228.611264 82.074 169.1884
15338.964058 82.031 167.1501
15450.116515 82.001 164.6638
15562.074428 81.995 161.7852
15674.843635 82.005 158.5909
15788.430013 82.018 155.1640
15902.839485 82.028 151.5794
16018.078016 82.046 147.8928
16134.151612 82.079 144.1251
16251.066326 82.113 140.2571
16368.828251 82.118 136.2326
16487.443528 82.060 131.9699
16606.918341 81.908 127.3882
16727.258917 81.647 122.4296
16848.471530 81.268 117.0948
16970.562500 80.755 111.4738
17093.538192 80.091 105.7442
17217.405016 79.259 100.1557
17342.169430 78.258 95.0037
17467.837939 77.099 90.5712
17594.417093 75.812 87.0830
17721.913492 74.430 84.6831
17850.333783 72.988 83.4180
17979.684660 71.520 83.2504
18109.972866 70.054 84.0862
18241.205195 68.610 85.8264
18373.388487 67.199 88.3903
18506.529634 65.827 91.6820
18640.635577 64.502 95.6133
18775.713306 63.225 100.1024
18911.769865 61.994 105.0833
19048.812345 60.811 110.5089
19186.847892 59.675 116.3101
19325.883701 58.585 122.4353
19465.927021 57.547 128.9312
19606.985152 56.570 135.7810
19749.065449 55.686 142.7503
19892.175318 54.983 149.1815
20036.322221 54.597 153.5238
