* Measurement data measured by REW V5.40 beta 105
* Source: Microphone (USB Multi-Channel Audio Device), MICROPHONE (Master Volume), L, volume: 0.490
* Format: 256k Log Swept Sine, 1 sweep at -6.0 dBFS with no timing reference
* Dated: Nov 19, 2025 9:01:46 PM
* REW Settings:
*  C-weighting compensation: Off
*  Target level: 75.0 dB
* Note: ; 
* Measurement: Duonic Silver R
* Smoothing: 1/24 octave
* Frequency Step: 96 ppo
* Start Frequency: 20.0 Hz
*
* Freq(Hz) SPL(dB) Phase(degrees)
19.995176 85.175 -125.8298
20.140070 85.203 -126.2243
20.286013 85.231 -126.6180
20.433014 85.258 -127.0110
20.581080 85.285 -127.4032
20.730219 85.312 -127.7945
20.880438 85.338 -128.1848
21.031747 85.363 -128.5743
21.184151 85.389 -128.9628
21.337660 85.414 -129.3503
21.492282 85.439 -129.7367
21.648024 85.464 -130.1222
21.804894 85.488 -130.5066
21.962902 85.512 -130.8900
22.122054 85.536 -131.2725
22.282359 85.560 -131.6541
22.443827 85.584 -132.0348
22.606464 85.607 -132.4148
22.770280 85.630 -132.7941
22.935282 85.652 -133.1727
23.101481 85.675 -133.5508
23.268884 85.697 -133.9284
23.437500 85.718 -134.3055
23.607337 85.739 -134.6821
23.778406 85.760 -135.0582
23.950714 85.781 -135.4337
24.124271 85.801 -135.8086
24.299085 85.821 -136.1828
24.475166 85.841 -136.5562
24.652524 85.860 -136.9286
24.831166 85.879 -137.2999
25.011103 85.897 -137.6699
25.192344 85.915 -138.0387
25.374898 85.932 -138.4060
25.558775 85.949 -138.7720
25.743984 85.966 -139.1365
25.930536 85.983 -139.4997
26.118439 85.999 -139.8616
26.307704 86.016 -140.2223
26.498340 86.032 -140.5821
26.690358 86.048 -140.9410
26.883768 86.064 -141.2993
27.078578 86.079 -141.6571
27.274801 86.094 -142.0145
27.472445 86.108 -142.3717
27.671522 86.122 -142.7286
27.872041 86.136 -143.0852
28.074014 86.149 -143.4415
28.277450 86.161 -143.7972
28.482360 86.173 -144.1522
28.688755 86.185 -144.5061
28.896645 86.196 -144.8586
29.106042 86.206 -145.2093
29.316956 86.216 -145.5578
29.529399 86.226 -145.9038
29.743381 86.235 -146.2468
29.958914 86.244 -146.5865
30.176009 86.252 -146.9227
30.394677 86.259 -147.2552
30.614929 86.267 -147.5838
30.836777 86.274 -147.9087
31.060233 86.281 -148.2298
31.285309 86.288 -148.5476
31.512015 86.296 -148.8624
31.740364 86.303 -149.1748
31.970368 86.311 -149.4852
32.202038 86.319 -149.7944
32.435387 86.328 -150.1029
32.670428 86.336 -150.4113
32.907171 86.344 -150.7201
33.145630 86.353 -151.0297
33.385817 86.361 -151.3401
33.627744 86.369 -151.6514
33.871425 86.378 -151.9635
34.116871 86.385 -152.2762
34.364096 86.393 -152.5892
34.613112 86.400 -152.9020
34.863933 86.406 -153.2146
35.116572 86.412 -153.5266
35.371041 86.418 -153.8380
35.627354 86.423 -154.1486
35.885524 86.429 -154.4585
36.145566 86.434 -154.7676
36.407491 86.438 -155.0759
36.671315 86.443 -155.3834
36.937051 86.446 -155.6899
37.204712 86.450 -155.9951
37.474312 86.453 -156.2989
37.745867 86.456 -156.6009
38.019389 86.458 -156.9009
38.294893 86.460 -157.1988
38.572393 86.463 -157.4944
38.851905 86.464 -157.7879
39.133442 86.466 -158.0793
39.417019 86.468 -158.3686
39.702651 86.469 -158.6560
39.990353 86.470 -158.9416
40.280139 86.470 -159.2253
40.572026 86.471 -159.5070
40.866027 86.471 -159.7868
41.162159 86.471 -160.0644
41.460437 86.471 -160.3400
41.760877 86.471 -160.6136
42.063493 86.471 -160.8855
42.368303 86.471 -161.1559
42.675321 86.471 -161.4251
42.984564 86.471 -161.6936
43.296048 86.471 -161.9615
43.609789 86.471 -162.2290
43.925803 86.471 -162.4962
44.244108 86.470 -162.7631
44.564719 86.470 -163.0294
44.887653 86.469 -163.2949
45.212928 86.467 -163.5592
45.540559 86.465 -163.8218
45.870565 86.463 -164.0824
46.202962 86.461 -164.3403
46.537767 86.458 -164.5952
46.874999 86.455 -164.8468
47.214675 86.452 -165.0949
47.556812 86.448 -165.3397
47.901428 86.445 -165.5817
48.248542 86.442 -165.8216
48.598170 86.439 -166.0603
48.950333 86.436 -166.2988
49.305047 86.432 -166.5378
49.662332 86.429 -166.7778
50.022206 86.426 -167.0188
50.384687 86.422 -167.2606
50.749795 86.417 -167.5022
51.117549 86.413 -167.7427
51.487968 86.407 -167.9810
51.861071 86.402 -168.2161
52.236878 86.396 -168.4475
52.615408 86.390 -168.6748
52.996681 86.384 -168.8981
53.380716 86.379 -169.1177
53.767535 86.374 -169.3342
54.157157 86.369 -169.5481
54.549602 86.364 -169.7603
54.944891 86.359 -169.9716
55.343044 86.353 -170.1829
55.744083 86.349 -170.3948
56.148027 86.345 -170.6082
56.554899 86.341 -170.8234
56.964719 86.338 -171.0404
57.377509 86.335 -171.2587
57.793290 86.331 -171.4776
58.212084 86.326 -171.6962
58.633913 86.321 -171.9138
59.058798 86.315 -172.1298
59.486763 86.308 -172.3444
59.917828 86.302 -172.5579
60.352018 86.294 -172.7708
60.789353 86.287 -172.9832
61.229858 86.278 -173.1949
61.673555 86.268 -173.4052
62.120467 86.256 -173.6130
62.570617 86.245 -173.8176
63.024030 86.235 -174.0186
63.480728 86.227 -174.2161
63.940735 86.221 -174.4109
64.404076 86.215 -174.6039
64.870775 86.208 -174.7959
65.340855 86.200 -174.9875
65.814342 86.191 -175.1789
66.291260 86.182 -175.3703
66.771634 86.172 -175.5620
67.255488 86.163 -175.7540
67.742849 86.155 -175.9469
68.233742 86.147 -176.1408
68.728192 86.139 -176.3353
69.226225 86.131 -176.5297
69.727866 86.123 -176.7230
70.233143 86.114 -176.9140
70.742082 86.106 -177.1018
71.254708 86.099 -177.2862
71.771049 86.092 -177.4675
72.291131 86.086 -177.6468
72.814983 86.080 -177.8254
73.342630 86.074 -178.0050
73.874101 86.067 -178.1869
74.409423 86.060 -178.3720
74.948625 86.053 -178.5605
75.491733 86.045 -178.7519
76.038777 86.037 -178.9452
76.589786 86.028 -179.1393
77.144787 86.018 -179.3331
77.703810 86.008 -179.5259
78.266884 85.997 -179.7172
78.834038 85.986 -179.9066
79.405302 85.975 179.9061
79.980705 85.964 179.7211
80.560278 85.954 179.5384
81.144051 85.945 179.3575
81.732055 85.935 179.1780
82.324319 85.926 178.9992
82.920875 85.917 178.8207
83.521754 85.907 178.6423
84.126987 85.896 178.4640
84.736605 85.885 178.2864
85.350642 85.874 178.1099
85.969128 85.863 177.9344
86.592096 85.852 177.7595
87.219578 85.842 177.5839
87.851607 85.832 177.4065
88.488216 85.823 177.2265
89.129438 85.813 177.0442
89.775306 85.802 176.8607
90.425855 85.789 176.6776
91.081118 85.776 176.4955
91.741129 85.761 176.3149
92.405924 85.747 176.1352
93.075535 85.733 175.9561
93.749999 85.719 175.7781
94.429350 85.704 175.6037
95.113624 85.687 175.4359
95.802856 85.670 175.2776
96.497083 85.652 175.1289
97.196341 85.635 174.9876
97.900666 85.620 174.8495
98.610094 85.606 174.7111
99.324664 85.593 174.5699
100.044411 85.581 174.4252
100.769374 85.569 174.2773
101.499591 85.557 174.1272
102.235098 85.544 173.9765
102.975936 85.531 173.8270
103.722142 85.517 173.6805
104.473756 85.502 173.5382
105.230815 85.487 173.4010
105.993361 85.472 173.2691
106.761433 85.456 173.1428
107.535070 85.440 173.0218
108.314314 85.425 172.9055
109.099204 85.411 172.7926
109.889782 85.399 172.6815
110.686088 85.388 172.5701
111.488165 85.378 172.4566
112.296055 85.369 172.3389
113.109798 85.361 172.2152
113.929438 85.354 172.0834
114.755018 85.346 171.9414
115.586580 85.338 171.7884
116.424168 85.329 171.6260
117.267826 85.320 171.4578
118.117597 85.310 171.2872
118.973525 85.300 171.1135
119.835657 85.290 170.9316
120.704035 85.280 170.7358
121.578706 85.269 170.5259
122.459716 85.254 170.3093
123.347109 85.236 170.0959
124.240933 85.216 169.8915
125.141234 85.195 169.6957
126.048059 85.175 169.5051
126.961456 85.154 169.3162
127.881471 85.133 169.1276
128.808153 85.112 168.9394
129.741550 85.089 168.7535
130.681710 85.066 168.5725
131.628684 85.041 168.3980
132.582520 85.017 168.2304
133.543267 84.992 168.0694
134.510977 84.966 167.9155
135.485699 84.941 167.7698
136.467484 84.917 167.6337
137.456384 84.893 167.5075
138.452449 84.871 167.3901
139.455733 84.851 167.2782
140.466286 84.833 167.1668
141.484163 84.817 167.0501
142.509416 84.802 166.9258
143.542098 84.787 166.7989
144.582263 84.771 166.6782
145.629965 84.756 166.5662
146.685260 84.744 166.4535
147.748202 84.733 166.3258
148.818846 84.722 166.1758
149.897249 84.710 166.0061
150.983466 84.695 165.8238
152.077555 84.678 165.6356
153.179572 84.658 165.4457
154.289574 84.637 165.2569
155.407620 84.613 165.0718
156.533767 84.588 164.8919
157.668076 84.563 164.7177
158.810603 84.538 164.5489
159.961411 84.515 164.3849
161.120557 84.492 164.2250
162.288103 84.472 164.0675
163.464109 84.455 163.9109
164.648638 84.440 163.7546
165.841750 84.428 163.5992
167.043507 84.418 163.4460
168.253973 84.407 163.2955
169.473211 84.391 163.1469
170.701284 84.368 162.9999
171.938256 84.336 162.8560
173.184191 84.295 162.7170
174.439155 84.246 162.5840
175.703213 84.188 162.4559
176.976431 84.122 162.3313
178.258875 84.053 162.2093
179.550613 83.985 162.0893
180.851710 83.922 161.9706
182.162236 83.864 161.8528
183.482259 83.812 161.7351
184.811847 83.766 161.6177
186.151070 83.726 161.5024
187.499997 83.690 161.3917
188.858700 83.656 161.2874
190.227248 83.625 161.1901
191.605713 83.594 161.0984
192.994167 83.563 161.0098
194.392682 83.533 160.9221
195.801331 83.503 160.8364
197.220189 83.472 160.7560
198.649327 83.441 160.6830
200.088822 83.408 160.6176
201.538748 83.375 160.5596
202.999181 83.341 160.5084
204.470197 83.306 160.4622
205.951872 83.271 160.4188
207.444284 83.234 160.3771
208.947511 83.197 160.3370
210.461631 83.159 160.2990
211.986723 83.119 160.2639
213.522866 83.079 160.2323
215.070141 83.038 160.2053
216.628627 82.996 160.1853
218.198408 82.953 160.1757
219.779563 82.911 160.1787
221.372177 82.870 160.1933
222.976331 82.830 160.2162
224.592109 82.791 160.2439
226.219596 82.753 160.2752
227.858877 82.717 160.3109
229.510036 82.682 160.3505
231.173160 82.649 160.3893
232.848336 82.619 160.4166
234.535651 82.589 160.4213
236.235193 82.559 160.4013
237.947051 82.526 160.3647
239.671313 82.491 160.3219
241.408071 82.453 160.2809
243.157413 82.413 160.2473
244.919432 82.371 160.2226
246.694219 82.329 160.2052
248.481867 82.286 160.1938
250.282469 82.242 160.1879
252.096119 82.198 160.1872
253.922911 82.153 160.1906
255.762941 82.107 160.1983
257.616305 82.061 160.2128
259.483099 82.014 160.2378
261.363421 81.966 160.2750
263.257368 81.920 160.3237
265.165039 81.873 160.3814
267.086534 81.828 160.4434
269.021953 81.783 160.5063
270.971397 81.738 160.5706
272.934968 81.693 160.6382
274.912767 81.647 160.7110
276.904898 81.602 160.7888
278.911465 81.557 160.8708
280.932573 81.511 160.9567
282.968326 81.465 161.0470
285.018831 81.419 161.1443
287.084195 81.373 161.2513
289.164526 81.327 161.3671
291.259931 81.282 161.4887
293.370520 81.237 161.6152
295.496404 81.193 161.7481
297.637693 81.149 161.8875
299.794498 81.105 162.0308
301.966933 81.061 162.1773
304.155110 81.017 162.3280
306.359143 80.974 162.4817
308.579148 80.932 162.6357
310.815239 80.890 162.7877
313.067535 80.848 162.9393
315.336151 80.805 163.0962
317.621207 80.761 163.2635
319.922821 80.719 163.4412
322.241114 80.677 163.6247
324.576206 80.637 163.8109
326.928219 80.596 163.9994
329.297275 80.556 164.1926
331.683499 80.515 164.3934
334.087014 80.475 164.6026
336.507947 80.436 164.8171
338.946422 80.398 165.0331
341.402567 80.360 165.2498
343.876511 80.323 165.4677
346.368382 80.286 165.6862
348.878310 80.250 165.9039
351.406426 80.213 166.1240
353.952862 80.175 166.3517
356.517750 80.138 166.5861
359.101225 80.101 166.8229
361.703421 80.064 167.0634
364.324473 80.027 167.3127
366.964518 79.991 167.5734
369.623694 79.955 167.8439
372.302140 79.922 168.1198
374.999995 79.890 168.3969
377.717399 79.859 168.6713
380.454495 79.830 168.9404
383.211425 79.800 169.2043
385.988333 79.771 169.4650
388.785364 79.742 169.7280
391.602663 79.712 169.9971
394.440377 79.683 170.2729
397.298655 79.654 170.5563
400.177644 79.626 170.8464
403.077497 79.598 171.1397
405.998362 79.571 171.4355
408.940394 79.543 171.7380
411.903744 79.515 172.0514
414.888569 79.488 172.3741
417.895022 79.461 172.7015
420.923262 79.435 173.0294
423.973445 79.410 173.3565
427.045732 79.385 173.6833
430.140281 79.361 174.0084
433.257255 79.337 174.3281
436.396816 79.314 174.6447
439.559127 79.291 174.9679
442.744354 79.269 175.3035
445.952662 79.249 175.6489
449.184218 79.231 175.9990
452.439192 79.214 176.3506
455.717753 79.198 176.7031
459.020072 79.182 177.0611
462.346321 79.167 177.4289
465.696673 79.152 177.8075
469.071303 79.140 178.1938
472.470387 79.130 178.5811
475.894102 79.122 178.9645
479.342627 79.115 179.3440
482.816141 79.110 179.7201
486.314826 79.107 -179.9111
489.838864 79.105 -179.5512
493.388438 79.105 -179.1994
496.963734 79.106 -178.8575
500.564938 79.107 -178.5284
504.192238 79.108 -178.2128
507.845823 79.108 -177.9074
511.525883 79.108 -177.6063
515.232610 79.107 -177.3075
518.966198 79.105 -177.0107
522.726841 79.103 -176.7152
526.514735 79.099 -176.4182
530.330078 79.095 -176.1168
534.173068 79.090 -175.8123
538.043907 79.085 -175.5058
541.942795 79.080 -175.1950
545.869936 79.076 -174.8785
549.825534 79.072 -174.5556
553.809797 79.069 -174.2276
557.822931 79.065 -173.8984
561.865146 79.061 -173.5711
565.936652 79.056 -173.2425
570.037662 79.050 -172.9070
574.168390 79.046 -172.5619
578.329051 79.044 -172.2101
582.519862 79.043 -171.8556
586.741041 79.043 -171.5021
590.992808 79.044 -171.1534
595.275386 79.045 -170.8092
599.588997 79.046 -170.4667
603.933866 79.049 -170.1215
608.310219 79.052 -169.7699
612.718286 79.056 -169.4126
617.158295 79.060 -169.0498
621.630479 79.065 -168.6811
626.135069 79.070 -168.3089
630.672302 79.076 -167.9366
635.242414 79.083 -167.5682
639.845642 79.090 -167.2069
644.482227 79.097 -166.8549
649.152411 79.103 -166.5063
653.856437 79.110 -166.1487
658.594551 79.118 -165.7779
663.366998 79.127 -165.4013
668.174029 79.136 -165.0237
673.015893 79.146 -164.6451
677.892844 79.156 -164.2659
682.805135 79.167 -163.8866
687.753022 79.179 -163.5088
692.736764 79.191 -163.1313
697.756620 79.204 -162.7512
702.812853 79.218 -162.3696
707.905724 79.232 -161.9903
713.035501 79.248 -161.6144
718.202450 79.263 -161.2380
723.406841 79.279 -160.8549
728.648945 79.297 -160.4623
733.929036 79.314 -160.0639
739.247388 79.332 -159.6648
744.604279 79.350 -159.2678
749.999989 79.368 -158.8723
755.434798 79.387 -158.4747
760.908990 79.406 -158.0742
766.422850 79.428 -157.6709
771.976666 79.451 -157.2669
777.570727 79.475 -156.8655
783.205325 79.501 -156.4686
788.880754 79.528 -156.0751
794.597309 79.555 -155.6825
800.355289 79.584 -155.2887
806.154993 79.613 -154.8928
811.996725 79.644 -154.4964
817.880788 79.676 -154.1005
823.807489 79.708 -153.7025
829.777138 79.741 -153.3020
835.790045 79.774 -152.9018
841.846524 79.807 -152.5011
847.946891 79.841 -152.0977
854.091464 79.877 -151.6949
860.280562 79.914 -151.2954
866.514510 79.953 -150.8992
872.793631 79.994 -150.5063
879.118254 80.036 -150.1165
885.488707 80.079 -149.7310
891.905323 80.124 -149.3517
898.368437 80.169 -148.9779
904.878385 80.216 -148.6064
911.435507 80.263 -148.2359
918.040144 80.311 -147.8658
924.692641 80.360 -147.4968
931.393345 80.410 -147.1328
938.142606 80.462 -146.7778
944.940774 80.515 -146.4335
951.788204 80.569 -146.1004
958.685254 80.624 -145.7747
965.632282 80.680 -145.4533
972.629652 80.737 -145.1364
979.677727 80.795 -144.8248
986.776876 80.854 -144.5182
993.927468 80.914 -144.2165
1001.129876 80.975 -143.9245
1008.384476 81.037 -143.6439
1015.691645 81.100 -143.3677
1023.051766 81.166 -143.0889
1030.465221 81.238 -142.8060
1037.932396 81.315 -142.5270
1045.453682 81.398 -142.2688
1053.029471 81.488 -142.0507
1060.660156 81.583 -141.8926
1068.346137 81.681 -141.8087
1076.087813 81.779 -141.8040
1083.885589 81.874 -141.8759
1091.739871 81.964 -142.0196
1099.651068 82.046 -142.2358
1107.619593 82.119 -142.5214
1115.645861 82.178 -142.8637
1123.730291 82.219 -143.2428
1131.873304 82.239 -143.6292
1140.075325 82.238 -143.9821
1148.336780 82.217 -144.2514
1156.658102 82.182 -144.3894
1165.039724 82.141 -144.3686
1173.482082 82.104 -144.1908
1181.985617 82.077 -143.8842
1190.550772 82.064 -143.4873
1199.177993 82.067 -143.0372
1207.867731 82.084 -142.5660
1216.620439 82.115 -142.1008
1225.436572 82.156 -141.6601
1234.316591 82.205 -141.2512
1243.260957 82.260 -140.8754
1252.270139 82.318 -140.5342
1261.344604 82.380 -140.2286
1270.484827 82.446 -139.9543
1279.691284 82.515 -139.7070
1288.964455 82.588 -139.4842
1298.304823 82.664 -139.2805
1307.712874 82.741 -139.0896
1317.189101 82.819 -138.9099
1326.733996 82.896 -138.7424
1336.348058 82.973 -138.5869
1346.031787 83.048 -138.4410
1355.785688 83.121 -138.3019
1365.610270 83.192 -138.1684
1375.506045 83.261 -138.0414
1385.473529 83.329 -137.9217
1395.513241 83.396 -137.8090
1405.625705 83.463 -137.7011
1415.811448 83.530 -137.5932
1426.071002 83.596 -137.4821
1436.404900 83.662 -137.3698
1446.813682 83.727 -137.2598
1457.297890 83.791 -137.1536
1467.858072 83.854 -137.0520
1478.494776 83.917 -136.9544
1489.208559 83.980 -136.8573
1499.999978 84.042 -136.7573
1510.869596 84.103 -136.6531
1521.817980 84.164 -136.5438
1532.845701 84.226 -136.4290
1543.953332 84.287 -136.3091
1555.141455 84.349 -136.1845
1566.410651 84.412 -136.0554
1577.761508 84.475 -135.9239
1589.194618 84.541 -135.7935
1600.710578 84.609 -135.6681
1612.309986 84.680 -135.5522
1623.993449 84.754 -135.4509
1635.761575 84.830 -135.3678
1647.614978 84.907 -135.3060
1659.554275 84.985 -135.2677
1671.580089 85.061 -135.2524
1683.693048 85.136 -135.2565
1695.893782 85.210 -135.2755
1708.182927 85.282 -135.3036
1720.561125 85.353 -135.3359
1733.029020 85.423 -135.3720
1745.587263 85.492 -135.4125
1758.236508 85.561 -135.4571
1770.977414 85.630 -135.5045
1783.810646 85.698 -135.5531
1796.736874 85.768 -135.6040
1809.756770 85.838 -135.6609
1822.871013 85.910 -135.7258
1836.080288 85.982 -135.7988
1849.385283 86.055 -135.8794
1862.786691 86.128 -135.9674
1876.285211 86.202 -136.0633
1889.881547 86.276 -136.1686
1903.576408 86.352 -136.2849
1917.370507 86.429 -136.4128
1931.264564 86.506 -136.5537
1945.259304 86.584 -136.7084
1959.355454 86.662 -136.8758
1973.553752 86.740 -137.0556
1987.854936 86.818 -137.2481
2002.259752 86.896 -137.4547
2016.768952 86.973 -137.6755
2031.383291 87.050 -137.9084
2046.103531 87.126 -138.1522
2060.930441 87.200 -138.4082
2075.864793 87.274 -138.6754
2090.907365 87.347 -138.9521
2106.058941 87.419 -139.2397
2121.320313 87.491 -139.5410
2136.692274 87.563 -139.8564
2152.175627 87.635 -140.1865
2167.771179 87.706 -140.5313
2183.479742 87.777 -140.8889
2199.302137 87.847 -141.2590
2215.239187 87.916 -141.6420
2231.291723 87.985 -142.0393
2247.460582 88.052 -142.4511
2263.746608 88.118 -142.8790
2280.150649 88.183 -143.3244
2296.673561 88.246 -143.7878
2313.316204 88.308 -144.2682
2330.079447 88.367 -144.7643
2346.964163 88.423 -145.2751
2363.971233 88.476 -145.7986
2381.101543 88.526 -146.3319
2398.355986 88.574 -146.8740
2415.735463 88.620 -147.4258
2433.240878 88.663 -147.9884
2450.873144 88.704 -148.5616
2468.633181 88.741 -149.1430
2486.521915 88.776 -149.7302
2504.540278 88.808 -150.3244
2522.689209 88.837 -150.9274
2540.969655 88.863 -151.5407
2559.382568 88.885 -152.1670
2577.928909 88.905 -152.8082
2596.609645 88.920 -153.4641
2615.425749 88.930 -154.1323
2634.378202 88.933 -154.8083
2653.467992 88.931 -155.4850
2672.696115 88.921 -156.1552
2692.063573 88.905 -156.8128
2711.571376 88.883 -157.4496
2731.220539 88.855 -158.0578
2751.012089 88.822 -158.6347
2770.947057 88.785 -159.1790
2791.026482 88.745 -159.6862
2811.251410 88.704 -160.1509
2831.622897 88.660 -160.5700
2852.142003 88.617 -160.9409
2872.809800 88.573 -161.2632
2893.627364 88.532 -161.5424
2914.595781 88.495 -161.7897
2935.716143 88.463 -162.0204
2956.989553 88.437 -162.2525
2978.417118 88.416 -162.5031
2999.999956 88.398 -162.7833
3021.739192 88.379 -163.0961
3043.635960 88.357 -163.4378
3065.691401 88.329 -163.8009
3087.906665 88.293 -164.1745
3110.282909 88.249 -164.5431
3132.821301 88.197 -164.8902
3155.523016 88.139 -165.2026
3178.389237 88.077 -165.4713
3201.421155 88.012 -165.6915
3224.619973 87.949 -165.8621
3247.986898 87.889 -165.9828
3271.523150 87.834 -166.0590
3295.229956 87.788 -166.1038
3319.108550 87.752 -166.1336
3343.160179 87.726 -166.1648
3367.386096 87.712 -166.2099
3391.787563 87.707 -166.2782
3416.365854 87.708 -166.3756
3441.122250 87.714 -166.5038
3466.058040 87.722 -166.6572
3491.174525 87.730 -166.8283
3516.473015 87.734 -167.0098
3541.954828 87.733 -167.1924
3567.621293 87.727 -167.3685
3593.473747 87.714 -167.5320
3619.513539 87.696 -167.6779
3645.742027 87.673 -167.8056
3672.160576 87.645 -167.9186
3698.770566 87.612 -168.0195
3725.573382 87.575 -168.1110
3752.570422 87.534 -168.1953
3779.763094 87.490 -168.2743
3807.152816 87.442 -168.3510
3834.741015 87.391 -168.4245
3862.529129 87.337 -168.4889
3890.518607 87.278 -168.5366
3918.710909 87.217 -168.5608
3947.107503 87.153 -168.5520
3975.709871 87.087 -168.4984
4004.519504 87.020 -168.3899
4033.537903 86.953 -168.2236
4062.766581 86.891 -168.0042
4092.207063 86.834 -167.7403
4121.860882 86.784 -167.4450
4151.729585 86.742 -167.1331
4181.814729 86.708 -166.8143
4212.117883 86.680 -166.4956
4242.640625 86.659 -166.1815
4273.384548 86.645 -165.8743
4304.351254 86.636 -165.5778
4335.542358 86.632 -165.2939
4366.959485 86.631 -165.0183
4398.604273 86.633 -164.7499
4430.478373 86.639 -164.4892
4462.583446 86.648 -164.2370
4494.921165 86.661 -163.9948
4527.493217 86.678 -163.7613
4560.301299 86.700 -163.5350
4593.347122 86.726 -163.3192
4626.632409 86.758 -163.1192
4660.158894 86.795 -162.9409
4693.928327 86.835 -162.7894
4727.942466 86.879 -162.6661
4762.203086 86.925 -162.5717
4796.711973 86.974 -162.5081
4831.470925 87.024 -162.4762
4866.481755 87.074 -162.4743
4901.746288 87.123 -162.5001
4937.266362 87.172 -162.5504
4973.043830 87.220 -162.6251
5009.080555 87.268 -162.7305
5045.378418 87.316 -162.8721
5081.939310 87.362 -163.0464
5118.765137 87.409 -163.2450
5155.857819 87.456 -163.4611
5193.219290 87.503 -163.6929
5230.851498 87.551 -163.9417
5268.756404 87.597 -164.2071
5306.935985 87.642 -164.4863
5345.392231 87.685 -164.7722
5384.127146 87.726 -165.0584
5423.142751 87.762 -165.3456
5462.441079 87.792 -165.6344
5502.024179 87.816 -165.9190
5541.894114 87.833 -166.1922
5582.052963 87.841 -166.4535
5622.502820 87.840 -166.7048
5663.245793 87.829 -166.9451
5704.284007 87.810 -167.1709
5745.619600 87.784 -167.3797
5787.254728 87.750 -167.5691
5829.191562 87.709 -167.7364
5871.432287 87.662 -167.8785
5913.979105 87.609 -167.9944
5956.834236 87.554 -168.0833
5999.999912 87.496 -168.1424
6043.478385 87.436 -168.1682
6087.271921 87.375 -168.1589
6131.382802 87.313 -168.1135
6175.813330 87.251 -168.0328
6220.565819 87.190 -167.9177
6265.642603 87.130 -167.7671
6311.046032 87.073 -167.5787
6356.778473 87.019 -167.3526
6402.842310 86.969 -167.0903
6449.239945 86.923 -166.7948
6495.973796 86.883 -166.4717
6543.046300 86.848 -166.1255
6590.459911 86.819 -165.7560
6638.217100 86.796 -165.3632
6686.320358 86.781 -164.9553
6734.772191 86.774 -164.5424
6783.575127 86.776 -164.1292
6832.731709 86.787 -163.7196
6882.244499 86.810 -163.3185
6932.116080 86.843 -162.9318
6982.349051 86.888 -162.5662
7032.946030 86.945 -162.2294
7083.909656 87.014 -161.9304
7135.242586 87.097 -161.6811
7186.947495 87.194 -161.4933
7239.027079 87.306 -161.3813
7291.484053 87.434 -161.3625
7344.321152 87.579 -161.4513
7397.541131 87.740 -161.6620
7451.146763 87.917 -162.0114
7505.140844 88.111 -162.5194
7559.526189 88.319 -163.2060
7614.305632 88.537 -164.0929
7669.482029 88.758 -165.2044
7725.058258 88.974 -166.5593
7781.037214 89.179 -168.1691
7837.421817 89.364 -170.0377
7894.215007 89.519 -172.1573
7951.419743 89.632 -174.5076
8009.039008 89.689 -177.0576
8067.075806 89.682 -179.7639
8125.533163 89.610 177.4276
8184.414126 89.471 174.5791
8243.721764 89.268 171.7578
8303.459170 89.002 169.0353
8363.629458 88.679 166.4775
8424.235765 88.305 164.1429
8485.281250 87.890 162.0782
8546.769096 87.445 160.3069
8608.702508 86.977 158.8383
8671.084715 86.494 157.6760
8733.918969 86.002 156.8120
8797.208547 85.507 156.2346
8860.956746 85.012 155.9301
8925.166891 84.522 155.8843
8989.842330 84.039 156.0820
9054.986433 83.568 156.4998
9120.602598 83.110 157.1159
9186.694244 82.666 157.9131
9253.264817 82.239 158.8762
9320.317788 81.829 159.9920
9387.856653 81.439 161.2462
9455.884932 81.070 162.6250
9524.406173 80.723 164.1215
9593.423946 80.398 165.7286
9662.941850 80.095 167.4371
9732.963510 79.812 169.2362
9803.492576 79.550 171.1179
9874.532725 79.308 173.0753
9946.087659 79.086 175.1006
10018.161110 78.885 177.1850
10090.756835 78.705 179.3229
10163.878619 78.547 -178.4938
10237.530273 78.412 -176.2738
10311.715638 78.299 -174.0214
10386.438580 78.207 -171.7387
10461.702996 78.137 -169.4258
10537.512808 78.090 -167.0856
10613.871970 78.068 -164.7260
10690.784461 78.069 -162.3560
10768.254293 78.096 -159.9812
10846.285502 78.148 -157.6051
10924.882158 78.227 -155.2325
11004.048358 78.333 -152.8719
11083.788228 78.466 -150.5386
11164.105927 78.629 -148.2480
11245.005640 78.823 -146.0076
11326.491587 79.051 -143.8243
11408.568014 79.312 -141.7104
11491.239200 79.610 -139.6839
11574.509457 79.945 -137.7691
11658.383123 80.321 -135.9961
11742.864573 80.743 -134.4024
11827.958211 81.213 -133.0395
11913.668472 81.735 -131.9750
11999.999825 82.308 -131.2902
12086.956770 82.933 -131.0874
12174.543841 83.602 -131.4949
12262.765605 84.304 -132.6582
12351.626659 85.019 -134.7284
12441.131638 85.713 -137.8366
12531.285206 86.343 -142.0570
12622.092064 86.860 -147.3632
12713.556946 87.210 -153.5945
12805.684621 87.351 -160.4486
12898.479890 87.256 -167.5116
12991.947593 86.929 -174.3270
13086.092601 86.393 179.5127
13180.919822 85.690 174.2945
13276.434201 84.867 170.1566
13372.640716 83.977 167.1006
13469.544383 83.070 165.0322
13567.150254 82.193 163.8044
13665.463417 81.386 163.2533
13764.488998 80.692 163.2208
13864.232160 80.180 163.5659
13964.698101 79.955 164.1705
14065.892060 80.097 164.9370
14167.819312 80.550 165.7856
14270.485171 81.152 166.6504
14373.894990 81.737 167.4717
14478.054158 82.174 168.1843
14582.968107 82.403 168.7191
14688.642305 82.451 169.0178
14795.082262 82.395 169.0325
14902.293527 82.295 168.7155
15010.281689 82.179 168.0189
15119.052378 82.056 166.9052
15228.611264 81.930 165.3508
15338.964058 81.808 163.3503
15450.116515 81.700 160.9210
15562.074428 81.615 158.1085
15674.843635 81.541 154.9944
15788.430013 81.460 151.6918
15902.839485 81.364 148.3221
16018.078016 81.266 144.9906
16134.151612 81.177 141.7664
16251.066326 81.095 138.6738
16368.828251 81.001 135.6848
16487.443528 80.872 132.7129
16606.918341 80.695 129.6335
16727.258917 80.466 126.3070
16848.471530 80.191 122.6009
16970.562500 79.858 118.4243
17093.538192 79.442 113.7702
17217.405016 78.906 108.7428
17342.169430 78.217 103.5616
17467.837939 77.354 98.5323
17594.417093 76.316 93.9943
17721.913492 75.118 90.2666
17850.333783 73.787 87.5976
17979.684660 72.361 86.1371
18109.972866 70.880 85.9462
18241.205195 69.383 86.9955
18373.388487 67.904 89.1847
18506.529634 66.474 92.3908
18640.635577 65.112 96.4711
18775.713306 63.830 101.2304
18911.769865 62.628 106.4569
19048.812345 61.504 112.0075
19186.847892 60.452 117.7887
19325.883701 59.462 123.7519
19465.927021 58.516 129.8494
19606.985152 57.615 135.9919
19749.065449 56.793 142.0422
19892.175318 56.128 147.6019
20036.322221 55.753 151.4100
