* Measurement data measured by REW V5.40 beta 105
* Source: Microphone (USB Multi-Channel Audio Device), MICROPHONE (Master Volume), L, volume: 0.490
* Format: 256k Log Swept Sine, 1 sweep at -6.0 dBFS with no timing reference
* Dated: Nov 19, 2025 9:26:18 PM
* REW Settings:
*  C-weighting compensation: Off
*  Target level: 75.0 dB
* Note: ; 
* Measurement: EDA Balanced
* Smoothing: 1/24 octave
* Frequency Step: 96 ppo
* Start Frequency: 20.0 Hz
*
* Freq(Hz) SPL(dB) Phase(degrees)
19.995176 89.308 45.5364
20.140070 89.329 45.0656
20.286013 89.349 44.5954
20.433014 89.368 44.1257
20.581080 89.387 43.6566
20.730219 89.406 43.1882
20.880438 89.424 42.7206
21.031747 89.442 42.2538
21.184151 89.459 41.7879
21.337660 89.475 41.3231
21.492282 89.491 40.8594
21.648024 89.507 40.3969
21.804894 89.522 39.9358
21.962902 89.537 39.4761
22.122054 89.552 39.0179
22.282359 89.566 38.5613
22.443827 89.580 38.1063
22.606464 89.593 37.6529
22.770280 89.606 37.2011
22.935282 89.618 36.7510
23.101481 89.630 36.3025
23.268884 89.642 35.8555
23.437500 89.653 35.4101
23.607337 89.664 34.9662
23.778406 89.675 34.5236
23.950714 89.685 34.0825
24.124271 89.695 33.6427
24.299085 89.705 33.2042
24.475166 89.714 32.7670
24.652524 89.723 32.3311
24.831166 89.732 31.8964
25.011103 89.740 31.4630
25.192344 89.748 31.0308
25.374898 89.755 30.5999
25.558775 89.762 30.1702
25.743984 89.769 29.7417
25.930536 89.776 29.3145
26.118439 89.782 28.8886
26.307704 89.788 28.4638
26.498340 89.794 28.0403
26.690358 89.800 27.6179
26.883768 89.805 27.1967
27.078578 89.810 26.7765
27.274801 89.814 26.3574
27.472445 89.818 25.9394
27.671522 89.821 25.5225
27.872041 89.824 25.1066
28.074014 89.826 24.6919
28.277450 89.828 24.2783
28.482360 89.830 23.8658
28.688755 89.832 23.4547
28.896645 89.833 23.0448
29.106042 89.834 22.6362
29.316956 89.834 22.2291
29.529399 89.834 21.8233
29.743381 89.834 21.4189
29.958914 89.834 21.0160
30.176009 89.833 20.6144
30.394677 89.832 20.2141
30.614929 89.830 19.8149
30.836777 89.828 19.4170
31.060233 89.826 19.0200
31.285309 89.823 18.6241
31.512015 89.821 18.2294
31.740364 89.818 17.8355
31.970368 89.814 17.4428
32.202038 89.811 17.0513
32.435387 89.806 16.6612
32.670428 89.802 16.2725
32.907171 89.797 15.8855
33.145630 89.792 15.5002
33.385817 89.786 15.1168
33.627744 89.780 14.7352
33.871425 89.774 14.3553
34.116871 89.768 13.9774
34.364096 89.762 13.6010
34.613112 89.755 13.2260
34.863933 89.747 12.8523
35.116572 89.740 12.4798
35.371041 89.732 12.1083
35.627354 89.723 11.7378
35.885524 89.715 11.3683
36.145566 89.707 10.9999
36.407491 89.698 10.6327
36.671315 89.688 10.2670
36.937051 89.678 9.9027
37.204712 89.668 9.5402
37.474312 89.658 9.1796
37.745867 89.647 8.8209
38.019389 89.636 8.4644
38.294893 89.625 8.1097
38.572393 89.614 7.7571
38.851905 89.602 7.4064
39.133442 89.591 7.0574
39.417019 89.579 6.7101
39.702651 89.567 6.3642
39.990353 89.555 6.0197
40.280139 89.542 5.6765
40.572026 89.529 5.3344
40.866027 89.515 4.9933
41.162159 89.502 4.6533
41.460437 89.488 4.3143
41.760877 89.474 3.9763
42.063493 89.460 3.6394
42.368303 89.446 3.3037
42.675321 89.431 2.9694
42.984564 89.416 2.6365
43.296048 89.401 2.3053
43.609789 89.385 1.9758
43.925803 89.369 1.6481
44.244108 89.353 1.3224
44.564719 89.336 0.9988
44.887653 89.320 0.6771
45.212928 89.303 0.3575
45.540559 89.285 0.0401
45.870565 89.268 -0.2753
46.202962 89.250 -0.5888
46.537767 89.233 -0.9004
46.874999 89.215 -1.2102
47.214675 89.197 -1.5183
47.556812 89.179 -1.8250
47.901428 89.160 -2.1302
48.248542 89.141 -2.4343
48.598170 89.122 -2.7373
48.950333 89.103 -3.0393
49.305047 89.083 -3.3402
49.662332 89.063 -3.6401
50.022206 89.043 -3.9390
50.384687 89.022 -4.2367
50.749795 89.001 -4.5330
51.117549 88.981 -4.8278
51.487968 88.959 -5.1210
51.861071 88.938 -5.4122
52.236878 88.917 -5.7016
52.615408 88.895 -5.9889
52.996681 88.874 -6.2743
53.380716 88.853 -6.5577
53.767535 88.831 -6.8393
54.157157 88.810 -7.1193
54.549602 88.788 -7.3979
54.944891 88.765 -7.6752
55.343044 88.742 -7.9515
55.744083 88.719 -8.2268
56.148027 88.696 -8.5013
56.554899 88.674 -8.7751
56.964719 88.652 -9.0481
57.377509 88.629 -9.3199
57.793290 88.606 -9.5902
58.212084 88.582 -9.8582
58.633913 88.556 -10.1232
59.058798 88.531 -10.3842
59.486763 88.504 -10.6404
59.917828 88.477 -10.8914
60.352018 88.450 -11.1371
60.789353 88.422 -11.3780
61.229858 88.394 -11.6152
61.673555 88.366 -11.8505
62.120467 88.337 -12.0851
62.570617 88.309 -12.3204
63.024030 88.281 -12.5570
63.480728 88.256 -12.7946
63.940735 88.231 -13.0326
64.404076 88.206 -13.2697
64.870775 88.180 -13.5049
65.340855 88.152 -13.7377
65.814342 88.122 -13.9675
66.291260 88.092 -14.1948
66.771634 88.062 -14.4203
67.255488 88.032 -14.6446
67.742849 88.003 -14.8683
68.233742 87.974 -15.0915
68.728192 87.945 -15.3140
69.226225 87.915 -15.5350
69.727866 87.886 -15.7538
70.233143 87.856 -15.9697
70.742082 87.827 -16.1823
71.254708 87.798 -16.3915
71.771049 87.770 -16.5975
72.291131 87.741 -16.8007
72.814983 87.713 -17.0013
73.342630 87.684 -17.2000
73.874101 87.654 -17.3973
74.409423 87.623 -17.5938
74.948625 87.592 -17.7900
75.491733 87.562 -17.9863
76.038777 87.531 -18.1824
76.589786 87.499 -18.3779
77.144787 87.467 -18.5722
77.703810 87.434 -18.7644
78.266884 87.401 -18.9541
78.834038 87.367 -19.1407
79.405302 87.333 -19.3243
79.980705 87.300 -19.5046
80.560278 87.267 -19.6816
81.144051 87.235 -19.8552
81.732055 87.203 -20.0255
82.324319 87.171 -20.1929
82.920875 87.139 -20.3575
83.521754 87.106 -20.5200
84.126987 87.074 -20.6805
84.736605 87.041 -20.8397
85.350642 87.008 -20.9980
85.969128 86.975 -21.1562
86.592096 86.942 -21.3141
87.219578 86.909 -21.4716
87.851607 86.877 -21.6277
88.488216 86.845 -21.7821
89.129438 86.812 -21.9346
89.775306 86.779 -22.0851
90.425855 86.745 -22.2336
91.081118 86.710 -22.3801
91.741129 86.674 -22.5240
92.405924 86.638 -22.6649
93.075535 86.603 -22.8025
93.749999 86.569 -22.9367
94.429350 86.534 -23.0680
95.113624 86.499 -23.1971
95.802856 86.463 -23.3248
96.497083 86.426 -23.4515
97.196341 86.389 -23.5769
97.900666 86.351 -23.7004
98.610094 86.314 -23.8211
99.324664 86.277 -23.9382
100.044411 86.240 -24.0516
100.769374 86.204 -24.1616
101.499591 86.168 -24.2687
102.235098 86.132 -24.3736
102.975936 86.096 -24.4766
103.722142 86.059 -24.5781
104.473756 86.022 -24.6784
105.230815 85.985 -24.7776
105.993361 85.947 -24.8756
106.761433 85.908 -24.9718
107.535070 85.869 -25.0654
108.314314 85.830 -25.1561
109.099204 85.791 -25.2440
109.889782 85.752 -25.3298
110.686088 85.714 -25.4147
111.488165 85.676 -25.4990
112.296055 85.637 -25.5825
113.109798 85.598 -25.6641
113.929438 85.559 -25.7429
114.755018 85.519 -25.8187
115.586580 85.478 -25.8921
116.424168 85.437 -25.9636
117.267826 85.395 -26.0333
118.117597 85.353 -26.0997
118.973525 85.310 -26.1598
119.835657 85.267 -26.2107
120.704035 85.223 -26.2512
121.578706 85.180 -26.2826
122.459716 85.137 -26.3077
123.347109 85.093 -26.3285
124.240933 85.049 -26.3446
125.141234 85.005 -26.3536
126.048059 84.961 -26.3531
126.961456 84.916 -26.3407
127.881471 84.872 -26.3129
128.808153 84.828 -26.2651
129.741550 84.785 -26.1927
130.681710 84.745 -26.0950
131.628684 84.709 -25.9788
132.582520 84.678 -25.8588
133.543267 84.652 -25.7535
134.510977 84.627 -25.6734
135.485699 84.602 -25.6114
136.467484 84.575 -25.5462
137.456384 84.549 -25.4615
138.452449 84.527 -25.3633
139.455733 84.508 -25.2741
140.466286 84.491 -25.2064
141.484163 84.475 -25.1517
142.509416 84.460 -25.0976
143.542098 84.446 -25.0468
144.582263 84.435 -25.0123
145.629965 84.424 -25.0015
146.685260 84.413 -25.0107
147.748202 84.400 -25.0338
148.818846 84.387 -25.0674
149.897249 84.373 -25.1121
150.983466 84.357 -25.1682
152.077555 84.340 -25.2343
153.179572 84.321 -25.3076
154.289574 84.300 -25.3854
155.407620 84.276 -25.4648
156.533767 84.251 -25.5430
157.668076 84.224 -25.6193
158.810603 84.197 -25.6957
159.961411 84.169 -25.7737
161.120557 84.140 -25.8505
162.288103 84.111 -25.9191
163.464109 84.084 -25.9748
164.648638 84.061 -26.0205
165.841750 84.042 -26.0664
167.043507 84.024 -26.1213
168.253973 84.004 -26.1791
169.473211 83.977 -26.2126
170.701284 83.942 -26.1887
171.938256 83.905 -26.1016
173.184191 83.870 -25.9949
174.439155 83.837 -25.9355
175.703213 83.795 -25.9552
176.976431 83.739 -26.0208
178.258875 83.671 -26.0677
179.550613 83.600 -26.0627
180.851710 83.534 -26.0203
182.162236 83.477 -25.9673
183.482259 83.429 -25.9161
184.811847 83.387 -25.8677
186.151070 83.353 -25.8207
187.499997 83.324 -25.7729
188.858700 83.300 -25.7240
190.227248 83.279 -25.6761
191.605713 83.259 -25.6332
192.994167 83.241 -25.5973
194.392682 83.223 -25.5671
195.801331 83.205 -25.5394
197.220189 83.187 -25.5114
198.649327 83.168 -25.4820
200.088822 83.149 -25.4529
201.538748 83.128 -25.4266
202.999181 83.105 -25.4022
204.470197 83.080 -25.3730
205.951872 83.053 -25.3298
207.444284 83.026 -25.2679
208.947511 83.001 -25.1965
210.461631 82.980 -25.1417
211.986723 82.959 -25.1296
213.522866 82.933 -25.1543
215.070141 82.900 -25.1750
216.628627 82.864 -25.1609
218.198408 82.827 -25.1178
219.779563 82.792 -25.0637
221.372177 82.758 -25.0068
222.976331 82.726 -24.9482
224.592109 82.693 -24.8890
226.219596 82.661 -24.8305
227.858877 82.629 -24.7703
229.510036 82.597 -24.7031
231.173160 82.564 -24.6255
232.848336 82.530 -24.5375
234.535651 82.496 -24.4383
236.235193 82.462 -24.3254
237.947051 82.429 -24.2013
239.671313 82.396 -24.0785
241.408071 82.365 -23.9720
243.157413 82.332 -23.8836
244.919432 82.298 -23.7991
246.694219 82.263 -23.7035
248.481867 82.231 -23.5974
250.282469 82.202 -23.4973
252.096119 82.176 -23.4169
253.922911 82.149 -23.3488
255.762941 82.120 -23.2748
257.616305 82.092 -23.1866
259.483099 82.063 -23.0873
261.363421 82.035 -22.9822
263.257368 82.007 -22.8737
265.165039 81.979 -22.7601
267.086534 81.950 -22.6403
269.021953 81.923 -22.5143
270.971397 81.897 -22.3857
272.934968 81.872 -22.2600
274.912767 81.849 -22.1415
276.904898 81.824 -22.0289
278.911465 81.800 -21.9166
280.932573 81.775 -21.8015
282.968326 81.750 -21.6859
285.018831 81.725 -21.5726
287.084195 81.700 -21.4617
289.164526 81.674 -21.3518
291.259931 81.648 -21.2407
293.370520 81.621 -21.1265
295.496404 81.595 -21.0093
297.637693 81.569 -20.8907
299.794498 81.542 -20.7710
301.966933 81.516 -20.6485
304.155110 81.489 -20.5224
306.359143 81.463 -20.3931
308.579148 81.437 -20.2620
310.815239 81.412 -20.1310
313.067535 81.388 -19.9999
315.336151 81.363 -19.8680
317.621207 81.338 -19.7355
319.922821 81.313 -19.6022
322.241114 81.288 -19.4659
324.576206 81.264 -19.3265
326.928219 81.240 -19.1860
329.297275 81.217 -19.0447
331.683499 81.195 -18.9008
334.087014 81.172 -18.7532
336.507947 81.150 -18.6035
338.946422 81.129 -18.4530
341.402567 81.107 -18.3035
343.876511 81.086 -18.1577
346.368382 81.064 -18.0148
348.878310 81.042 -17.8713
351.406426 81.019 -17.7258
353.952862 80.997 -17.5760
356.517750 80.976 -17.4219
359.101225 80.955 -17.2676
361.703421 80.934 -17.1141
364.324473 80.913 -16.9589
366.964518 80.891 -16.8007
369.623694 80.870 -16.6389
372.302140 80.849 -16.4775
374.999995 80.829 -16.3195
377.717399 80.807 -16.1584
380.454495 80.786 -15.9901
383.211425 80.766 -15.8188
385.988333 80.747 -15.6516
388.785364 80.728 -15.4911
391.602663 80.709 -15.3337
394.440377 80.690 -15.1746
397.298655 80.671 -15.0095
400.177644 80.653 -14.8414
403.077497 80.634 -14.6786
405.998362 80.616 -14.5186
408.940394 80.596 -14.3522
411.903744 80.577 -14.1765
414.888569 80.559 -13.9955
417.895022 80.541 -13.8148
420.923262 80.524 -13.6370
423.973445 80.507 -13.4581
427.045732 80.489 -13.2759
430.140281 80.472 -13.0920
433.257255 80.456 -12.9102
436.396816 80.440 -12.7326
439.559127 80.425 -12.5583
442.744354 80.409 -12.3839
445.952662 80.392 -12.2069
449.184218 80.376 -12.0272
452.439192 80.360 -11.8446
455.717753 80.344 -11.6560
459.020072 80.328 -11.4604
462.346321 80.313 -11.2622
465.696673 80.297 -11.0659
469.071303 80.282 -10.8719
472.470387 80.266 -10.6803
475.894102 80.251 -10.4919
479.342627 80.235 -10.3051
482.816141 80.219 -10.1172
486.314826 80.204 -9.9255
489.838864 80.190 -9.7296
493.388438 80.176 -9.5311
496.963734 80.164 -9.3325
500.564938 80.151 -9.1348
504.192238 80.138 -8.9386
507.845823 80.124 -8.7412
511.525883 80.111 -8.5415
515.232610 80.097 -8.3399
518.966198 80.084 -8.1359
522.726841 80.072 -7.9296
526.514735 80.059 -7.7225
530.330078 80.047 -7.5153
534.173068 80.035 -7.3075
538.043907 80.023 -7.0984
541.942795 80.012 -6.8873
545.869936 80.001 -6.6754
549.825534 79.990 -6.4648
553.809797 79.978 -6.2552
557.822931 79.966 -6.0430
561.865146 79.955 -5.8263
565.936652 79.944 -5.6050
570.037662 79.935 -5.3807
574.168390 79.925 -5.1561
578.329051 79.916 -4.9309
582.519862 79.907 -4.7045
586.741041 79.897 -4.4784
590.992808 79.888 -4.2523
595.275386 79.878 -4.0238
599.588997 79.869 -3.7935
603.933866 79.861 -3.5626
608.310219 79.853 -3.3295
612.718286 79.845 -3.0933
617.158295 79.837 -2.8553
621.630479 79.829 -2.6177
626.135069 79.822 -2.3793
630.672302 79.815 -2.1368
635.242414 79.809 -1.8901
639.845642 79.803 -1.6437
644.482227 79.798 -1.3988
649.152411 79.792 -1.1518
653.856437 79.786 -0.9003
658.594551 79.779 -0.6453
663.366998 79.773 -0.3878
668.174029 79.768 -0.1277
673.015893 79.763 0.1334
677.892844 79.760 0.3940
682.805135 79.757 0.6546
687.753022 79.755 0.9155
692.736764 79.752 1.1765
697.756620 79.749 1.4392
702.812853 79.746 1.7048
707.905724 79.744 1.9731
713.035501 79.743 2.2441
718.202450 79.742 2.5176
723.406841 79.741 2.7941
728.648945 79.741 3.0743
733.929036 79.741 3.3558
739.247388 79.742 3.6349
744.604279 79.744 3.9127
749.999989 79.747 4.1934
755.434798 79.750 4.4755
760.908990 79.752 4.7562
766.422850 79.755 5.0381
771.976666 79.757 5.3233
777.570727 79.761 5.6117
783.205325 79.766 5.9023
788.880754 79.773 6.1927
794.597309 79.780 6.4811
800.355289 79.788 6.7661
806.154993 79.795 7.0470
811.996725 79.802 7.3241
817.880788 79.809 7.6008
823.807489 79.815 7.8812
829.777138 79.820 8.1691
835.790045 79.824 8.4677
841.846524 79.827 8.7841
847.946891 79.831 9.1301
854.091464 79.836 9.5162
860.280562 79.850 9.9361
866.514510 79.875 10.3524
872.793631 79.909 10.7169
879.118254 79.947 11.0073
885.488707 79.984 11.2297
891.905323 80.016 11.4014
898.368437 80.040 11.5391
904.878385 80.054 11.6609
911.435507 80.057 11.7966
918.040144 80.051 11.9915
924.692641 80.042 12.2861
931.393345 80.039 12.6796
938.142606 80.049 13.1229
944.940774 80.071 13.5591
951.788204 80.101 13.9576
958.685254 80.136 14.3133
965.632282 80.173 14.6315
972.629652 80.212 14.9177
979.677727 80.249 15.1810
986.776876 80.286 15.4337
993.927468 80.322 15.6802
1001.129876 80.359 15.9146
1008.384476 80.396 16.1320
1015.691645 80.433 16.3369
1023.051766 80.470 16.5364
1030.465221 80.507 16.7320
1037.932396 80.545 16.9225
1045.453682 80.583 17.1077
1053.029471 80.620 17.2852
1060.660156 80.658 17.4520
1068.346137 80.697 17.6079
1076.087813 80.736 17.7560
1083.885589 80.776 17.8987
1091.739871 80.817 18.0358
1099.651068 80.857 18.1658
1107.619593 80.897 18.2859
1115.645861 80.936 18.3940
1123.730291 80.975 18.4926
1131.873304 81.014 18.5872
1140.075325 81.052 18.6787
1148.336780 81.090 18.7623
1156.658102 81.128 18.8350
1165.039724 81.164 18.8986
1173.482082 81.201 18.9537
1181.985617 81.237 18.9988
1190.550772 81.274 19.0359
1199.177993 81.309 19.0703
1207.867731 81.344 19.1051
1216.620439 81.379 19.1378
1225.436572 81.413 19.1646
1234.316591 81.447 19.1824
1243.260957 81.481 19.1945
1252.270139 81.514 19.2062
1261.344604 81.545 19.2196
1270.484827 81.578 19.2324
1279.691284 81.612 19.2413
1288.964455 81.649 19.2443
1298.304823 81.689 19.2415
1307.712874 81.731 19.2355
1317.189101 81.772 19.2288
1326.733996 81.812 19.2202
1336.348058 81.850 19.2097
1346.031787 81.886 19.2000
1355.785688 81.919 19.1909
1365.610270 81.949 19.1796
1375.506045 81.978 19.1638
1385.473529 82.006 19.1469
1395.513241 82.032 19.1359
1405.625705 82.057 19.1310
1415.811448 82.081 19.1287
1426.071002 82.104 19.1279
1436.404900 82.127 19.1282
1446.813682 82.150 19.1274
1457.297890 82.171 19.1245
1467.858072 82.192 19.1212
1478.494776 82.211 19.1196
1489.208559 82.229 19.1200
1499.999978 82.246 19.1223
1510.869596 82.263 19.1271
1521.817980 82.279 19.1349
1532.845701 82.294 19.1461
1543.953332 82.308 19.1595
1555.141455 82.321 19.1737
1566.410651 82.333 19.1887
1577.761508 82.344 19.2073
1589.194618 82.355 19.2303
1600.710578 82.366 19.2550
1612.309986 82.376 19.2814
1623.993449 82.385 19.3119
1635.761575 82.394 19.3461
1647.614978 82.403 19.3809
1659.554275 82.411 19.4140
1671.580089 82.419 19.4488
1683.693048 82.426 19.4869
1695.893782 82.433 19.5275
1708.182927 82.440 19.5726
1720.561125 82.447 19.6250
1733.029020 82.454 19.6808
1745.587263 82.459 19.7363
1758.236508 82.464 19.7936
1770.977414 82.470 19.8540
1783.810646 82.475 19.9174
1796.736874 82.482 19.9824
1809.756770 82.489 20.0479
1822.871013 82.497 20.1113
1836.080288 82.505 20.1690
1849.385283 82.515 20.2207
1862.786691 82.524 20.2712
1876.285211 82.534 20.3232
1889.881547 82.543 20.3735
1903.576408 82.553 20.4214
1917.370507 82.563 20.4711
1931.264564 82.574 20.5229
1945.259304 82.586 20.5729
1959.355454 82.598 20.6132
1973.553752 82.611 20.6356
1987.854936 82.623 20.6322
2002.259752 82.633 20.5939
2016.768952 82.635 20.5132
2031.383291 82.621 20.4089
2046.103531 82.584 20.3750
2060.930441 82.536 20.5714
2075.864793 82.506 21.0395
2090.907365 82.516 21.5634
2106.058941 82.552 21.9359
2121.320313 82.595 22.1417
2136.692274 82.631 22.2513
2152.175627 82.660 22.3245
2167.771179 82.684 22.3912
2183.479742 82.704 22.4618
2199.302137 82.723 22.5381
2215.239187 82.741 22.6205
2231.291723 82.758 22.7094
2247.460582 82.775 22.8038
2263.746608 82.790 22.9027
2280.150649 82.805 23.0061
2296.673561 82.820 23.1132
2313.316204 82.835 23.2213
2330.079447 82.851 23.3302
2346.964163 82.866 23.4420
2363.971233 82.882 23.5581
2381.101543 82.897 23.6762
2398.355986 82.912 23.7954
2415.735463 82.927 23.9167
2433.240878 82.942 24.0409
2450.873144 82.958 24.1700
2468.633181 82.974 24.3051
2486.521915 82.990 24.4438
2504.540278 83.006 24.5824
2522.689209 83.022 24.7217
2540.969655 83.038 24.8657
2559.382568 83.054 25.0162
2577.928909 83.070 25.1731
2596.609645 83.084 25.3359
2615.425749 83.099 25.5047
2634.378202 83.114 25.6799
2653.467992 83.130 25.8627
2672.696115 83.146 26.0554
2692.063573 83.161 26.2585
2711.571376 83.176 26.4729
2731.220539 83.190 26.7017
2751.012089 83.203 26.9460
2770.947057 83.216 27.2064
2791.026482 83.229 27.4890
2811.251410 83.243 27.8004
2831.622897 83.258 28.1456
2852.142003 83.273 28.5323
2872.809800 83.290 28.9673
2893.627364 83.311 29.4568
2914.595781 83.338 30.0048
2935.716143 83.375 30.6088
2956.989553 83.426 31.2608
2978.417118 83.493 31.9456
2999.999956 83.578 32.6369
3021.739192 83.683 33.2976
3043.635960 83.807 33.8841
3065.691401 83.945 34.3562
3087.906665 84.093 34.6861
3110.282909 84.242 34.8621
3132.821301 84.388 34.8920
3155.523016 84.525 34.8003
3178.389237 84.650 34.6176
3201.421155 84.763 34.3733
3224.619973 84.865 34.0920
3247.986898 84.958 33.7926
3271.523150 85.042 33.4873
3295.229956 85.121 33.1873
3319.108550 85.197 32.9060
3343.160179 85.272 32.6537
3367.386096 85.350 32.4338
3391.787563 85.432 32.2441
3416.365854 85.517 32.0804
3441.122250 85.607 31.9440
3466.058040 85.701 31.8374
3491.174525 85.802 31.7599
3516.473015 85.909 31.7061
3541.954828 86.023 31.6653
3567.621293 86.141 31.6234
3593.473747 86.266 31.5637
3619.513539 86.396 31.4680
3645.742027 86.529 31.3175
3672.160576 86.665 31.0959
3698.770566 86.800 30.7924
3725.573382 86.932 30.4048
3752.570422 87.061 29.9372
3779.763094 87.184 29.3962
3807.152816 87.301 28.7888
3834.741015 87.413 28.1205
3862.529129 87.520 27.3953
3890.518607 87.622 26.6155
3918.710909 87.719 25.7828
3947.107503 87.810 24.8992
3975.709871 87.896 23.9666
4004.519504 87.974 22.9830
4033.537903 88.045 21.9470
4062.766581 88.108 20.8613
4092.207063 88.163 19.7294
4121.860882 88.208 18.5546
4151.729585 88.244 17.3395
4181.814729 88.270 16.0870
4212.117883 88.285 14.8011
4242.640625 88.289 13.4869
4273.384548 88.281 12.1508
4304.351254 88.262 10.8004
4335.542358 88.230 9.4438
4366.959485 88.185 8.0872
4398.604273 88.127 6.7353
4430.478373 88.056 5.3954
4462.583446 87.971 4.0781
4494.921165 87.874 2.7927
4527.493217 87.764 1.5471
4560.301299 87.642 0.3496
4593.347122 87.509 -0.7913
4626.632409 87.366 -1.8697
4660.158894 87.213 -2.8807
4693.928327 87.053 -3.8197
4727.942466 86.885 -4.6851
4762.203086 86.710 -5.4762
4796.711973 86.529 -6.1910
4831.470925 86.342 -6.8279
4866.481755 86.150 -7.3839
4901.746288 85.952 -7.8564
4937.266362 85.750 -8.2456
4973.043830 85.545 -8.5519
5009.080555 85.337 -8.7749
5045.378418 85.127 -8.9131
5081.939310 84.916 -8.9659
5118.765137 84.706 -8.9313
5155.857819 84.498 -8.8070
5193.219290 84.293 -8.5920
5230.851498 84.092 -8.2844
5268.756404 83.894 -7.8837
5306.935985 83.701 -7.3896
5345.392231 83.511 -6.7994
5384.127146 83.323 -6.1079
5423.142751 83.137 -5.3099
5462.441079 82.952 -4.3998
5502.024179 82.768 -3.3739
5541.894114 82.586 -2.2297
5582.052963 82.405 -0.9651
5622.502820 82.225 0.4233
5663.245793 82.047 1.9413
5704.284007 81.872 3.5934
5745.619600 81.701 5.3903
5787.254728 81.533 7.3750
5829.191562 81.373 9.6253
5871.432287 81.236 12.1945
5913.979105 81.143 15.0408
5956.834236 81.106 18.0496
5999.999912 81.125 21.1324
6043.478385 81.200 24.2585
6087.271921 81.331 27.4393
6131.382802 81.533 30.7273
6175.813330 81.840 34.1269
6220.565819 82.285 37.3056
6265.642603 82.837 39.5417
6311.046032 83.392 40.5328
6356.778473 83.882 40.6974
6402.842310 84.301 40.4771
6449.239945 84.668 40.0632
6495.973796 84.992 39.5153
6543.046300 85.280 38.8731
6590.459911 85.534 38.1840
6638.217100 85.760 37.4952
6686.320358 85.962 36.8466
6734.772191 86.148 36.2674
6783.575127 86.325 35.7760
6832.731709 86.498 35.3824
6882.244499 86.675 35.0948
6932.116080 86.867 34.9160
6982.349051 87.089 34.8238
7032.946030 87.352 34.7317
7083.909656 87.659 34.4865
7135.242586 87.997 33.9670
7186.947495 88.350 33.1751
7239.027079 88.717 32.1637
7291.484053 89.105 30.9344
7344.321152 89.521 29.4246
7397.541131 89.964 27.5395
7451.146763 90.430 25.1742
7505.140844 90.906 22.2292
7559.526189 91.372 18.6255
7614.305632 91.800 14.3219
7669.482029 92.158 9.3292
7725.058258 92.413 3.7249
7781.037214 92.541 -2.3381
7837.421817 92.520 -8.6400
7894.215007 92.342 -14.9214
7951.419743 92.009 -20.9231
8009.039008 91.532 -26.4232
8067.075806 90.935 -31.2633
8125.533163 90.246 -35.3582
8184.414126 89.496 -38.6877
8243.721764 88.715 -41.2818
8303.459170 87.922 -43.2006
8363.629458 87.134 -44.5190
8424.235765 86.364 -45.3159
8485.281250 85.620 -45.6665
8546.769096 84.910 -45.6400
8608.702508 84.237 -45.2981
8671.084715 83.600 -44.6913
8733.918969 83.000 -43.8588
8797.208547 82.435 -42.8369
8860.956746 81.904 -41.6602
8925.166891 81.406 -40.3538
8989.842330 80.940 -38.9364
9054.986433 80.503 -37.4261
9120.602598 80.093 -35.8405
9186.694244 79.710 -34.1924
9253.264817 79.354 -32.4926
9320.317788 79.025 -30.7524
9387.856653 78.723 -28.9858
9455.884932 78.449 -27.2020
9524.406173 78.201 -25.4071
9593.423946 77.979 -23.6138
9662.941850 77.782 -21.8398
9732.963510 77.604 -20.0983
9803.492576 77.442 -18.3846
9874.532725 77.294 -16.6776
9946.087659 77.162 -14.9550
10018.161110 77.049 -13.2125
10090.756835 76.960 -11.4783
10163.878619 76.897 -9.7941
10237.530273 76.858 -8.1935
10311.715638 76.840 -6.6984
10386.438580 76.838 -5.3202
10461.702996 76.851 -4.0690
10537.512808 76.876 -2.9506
10613.871970 76.910 -1.9634
10690.784461 76.951 -1.1005
10768.254293 76.998 -0.3532
10846.285502 77.049 0.2784
10924.882158 77.105 0.7786
11004.048358 77.166 1.1183
11083.788228 77.226 1.2731
11164.105927 77.278 1.2377
11245.005640 77.316 1.0236
11326.491587 77.331 0.6500
11408.568014 77.320 0.1451
11491.239200 77.278 -0.4534
11574.509457 77.202 -1.1013
11658.383123 77.091 -1.7546
11742.864573 76.941 -2.3597
11827.958211 76.755 -2.8406
11913.668472 76.540 -3.1151
11999.999825 76.314 -3.1375
12086.956770 76.096 -2.9785
12174.543841 75.888 -2.8378
12262.765605 75.663 -2.7774
12351.626659 75.404 -2.6282
12441.131638 75.117 -2.2424
12531.285206 74.818 -1.5892
12622.092064 74.520 -0.6920
12713.556946 74.228 0.4144
12805.684621 73.948 1.6926
12898.479890 73.680 3.1101
12991.947593 73.429 4.6420
13086.092601 73.195 6.2574
13180.919822 72.977 7.9213
13276.434201 72.775 9.5981
13372.640716 72.596 11.2507
13469.544383 72.453 12.8365
13567.150254 72.362 14.3066
13665.463417 72.344 15.5979
13764.488998 72.434 16.6423
13864.232160 72.693 17.3785
13964.698101 73.202 17.7646
14065.892060 73.978 17.7935
14167.819312 74.920 17.5029
14270.485171 75.867 16.9965
14373.894990 76.688 16.4343
14478.054158 77.295 15.9878
14582.968107 77.671 15.7662
14688.642305 77.892 15.7266
14795.082262 78.078 15.6234
14902.293527 78.317 15.0437
15010.281689 78.629 13.5022
15119.052378 78.975 10.5841
15228.611264 79.282 6.0919
15338.964058 79.469 0.1138
15450.116515 79.464 -6.9827
15562.074428 79.225 -14.6054
15674.843635 78.740 -22.0524
15788.430013 78.038 -28.6923
15902.839485 77.190 -34.1870
16018.078016 76.277 -38.5445
16134.151612 75.340 -41.8539
16251.066326 74.384 -44.0946
16368.828251 73.395 -45.1286
16487.443528 72.366 -44.8253
16606.918341 71.294 -43.0576
16727.258917 70.207 -39.5279
16848.471530 69.203 -33.7487
16970.562500 68.481 -25.5132
17093.538192 68.272 -15.9655
17217.405016 68.633 -7.6794
17342.169430 69.363 -2.7012
17467.837939 70.185 -1.3768
17594.417093 70.892 -3.0707
17721.913492 71.354 -6.9437
17850.333783 71.490 -12.1460
17979.684660 71.260 -17.7726
18109.972866 70.664 -22.8824
18241.205195 69.752 -26.5919
18373.388487 68.611 -28.1680
18506.529634 67.370 -27.1487
18640.635577 66.188 -23.4705
18775.713306 65.229 -17.6275
18911.769865 64.609 -10.8074
19048.812345 64.327 -4.5190
19186.847892 64.251 0.2451
19325.883701 64.215 3.4297
19465.927021 64.101 5.6715
19606.985152 63.874 7.7838
19749.065449 63.575 10.3191
19892.175318 63.293 13.2084
20036.322221 63.129 15.4260
