* Measurement data measured by REW V5.40 beta 105
* Source: Microphone (USB Multi-Channel Audio Device), MICROPHONE (Master Volume), L, volume: 0.490
* Format: 256k Log Swept Sine, 1 sweep at -6.0 dBFS with no timing reference
* Dated: Nov 19, 2025 9:12:33 PM
* REW Settings:
*  C-weighting compensation: Off
*  Target level: 75.0 dB
* Note: ; 
* Measurement: PRX L
* Smoothing: 1/24 octave
* Frequency Step: 96 ppo
* Start Frequency: 20.0 Hz
*
* Freq(Hz) SPL(dB) Phase(degrees)
19.995176 82.364 45.7813
20.140070 82.389 45.3279
20.286013 82.413 44.8755
20.433014 82.437 44.4243
20.581080 82.460 43.9741
20.730219 82.483 43.5249
20.880438 82.505 43.0767
21.031747 82.527 42.6294
21.184151 82.549 42.1829
21.337660 82.570 41.7373
21.492282 82.591 41.2925
21.648024 82.612 40.8484
21.804894 82.633 40.4052
21.962902 82.653 39.9628
22.122054 82.673 39.5212
22.282359 82.692 39.0806
22.443827 82.711 38.6409
22.606464 82.729 38.2023
22.770280 82.748 37.7648
22.935282 82.765 37.3286
23.101481 82.783 36.8936
23.268884 82.799 36.4599
23.437500 82.816 36.0276
23.607337 82.832 35.5966
23.778406 82.848 35.1670
23.950714 82.864 34.7386
24.124271 82.879 34.3112
24.299085 82.894 33.8849
24.475166 82.909 33.4592
24.652524 82.924 33.0341
24.831166 82.939 32.6094
25.011103 82.953 32.1847
25.192344 82.967 31.7599
25.374898 82.981 31.3348
25.558775 82.994 30.9092
25.743984 83.007 30.4831
25.930536 83.020 30.0563
26.118439 83.032 29.6290
26.307704 83.044 29.2011
26.498340 83.056 28.7729
26.690358 83.067 28.3445
26.883768 83.077 27.9161
27.078578 83.087 27.4881
27.274801 83.095 27.0607
27.472445 83.103 26.6342
27.671522 83.110 26.2089
27.872041 83.117 25.7852
28.074014 83.123 25.3631
28.277450 83.128 24.9430
28.482360 83.133 24.5251
28.688755 83.138 24.1094
28.896645 83.142 23.6960
29.106042 83.145 23.2850
29.316956 83.148 22.8762
29.529399 83.151 22.4696
29.743381 83.154 22.0651
29.958914 83.156 21.6625
30.176009 83.158 21.2618
30.394677 83.159 20.8628
30.614929 83.160 20.4653
30.836777 83.161 20.0693
31.060233 83.161 19.6748
31.285309 83.161 19.2816
31.512015 83.161 18.8898
31.740364 83.161 18.4994
31.970368 83.160 18.1104
32.202038 83.159 17.7228
32.435387 83.158 17.3365
32.670428 83.156 16.9517
32.907171 83.154 16.5682
33.145630 83.151 16.1860
33.385817 83.149 15.8051
33.627744 83.146 15.4255
33.871425 83.143 15.0472
34.116871 83.139 14.6702
34.364096 83.135 14.2946
34.613112 83.131 13.9203
34.863933 83.126 13.5477
35.116572 83.121 13.1765
35.371041 83.115 12.8071
35.627354 83.109 12.4392
35.885524 83.103 12.0730
36.145566 83.097 11.7081
36.407491 83.091 11.3446
36.671315 83.085 10.9821
36.937051 83.078 10.6202
37.204712 83.071 10.2589
37.474312 83.064 9.8978
37.745867 83.057 9.5366
38.019389 83.049 9.1752
38.294893 83.041 8.8136
38.572393 83.033 8.4519
38.851905 83.025 8.0901
39.133442 83.016 7.7286
39.417019 83.006 7.3677
39.702651 82.996 7.0077
39.990353 82.985 6.6490
40.280139 82.973 6.2921
40.572026 82.961 5.9371
40.866027 82.948 5.5846
41.162159 82.934 5.2347
41.460437 82.921 4.8876
41.760877 82.907 4.5434
42.063493 82.893 4.2021
42.368303 82.878 3.8638
42.675321 82.863 3.5283
42.984564 82.848 3.1953
43.296048 82.833 2.8646
43.609789 82.818 2.5360
43.925803 82.803 2.2090
44.244108 82.787 1.8834
44.564719 82.772 1.5588
44.887653 82.756 1.2350
45.212928 82.740 0.9117
45.540559 82.724 0.5889
45.870565 82.707 0.2666
46.202962 82.690 -0.0549
46.537767 82.672 -0.3752
46.874999 82.653 -0.6939
47.214675 82.634 -1.0104
47.556812 82.615 -1.3240
47.901428 82.594 -1.6343
48.248542 82.574 -1.9408
48.598170 82.552 -2.2430
48.950333 82.530 -2.5410
49.305047 82.508 -2.8347
49.662332 82.485 -3.1243
50.022206 82.463 -3.4100
50.384687 82.441 -3.6924
50.749795 82.418 -3.9719
51.117549 82.396 -4.2490
51.487968 82.374 -4.5241
51.861071 82.351 -4.7974
52.236878 82.329 -5.0691
52.615408 82.307 -5.3395
52.996681 82.285 -5.6086
53.380716 82.264 -5.8768
53.767535 82.242 -6.1444
54.157157 82.220 -6.4116
54.549602 82.198 -6.6787
54.944891 82.175 -6.9458
55.343044 82.151 -7.2126
55.744083 82.127 -7.4790
56.148027 82.103 -7.7448
56.554899 82.079 -8.0095
56.964719 82.056 -8.2733
57.377509 82.032 -8.5359
57.793290 82.007 -8.7972
58.212084 81.982 -9.0571
58.633913 81.955 -9.3153
59.058798 81.928 -9.5715
59.486763 81.900 -9.8254
59.917828 81.871 -10.0763
60.352018 81.842 -10.3239
60.789353 81.811 -10.5675
61.229858 81.780 -10.8069
61.673555 81.747 -11.0418
62.120467 81.714 -11.2722
62.570617 81.681 -11.4984
63.024030 81.649 -11.7209
63.480728 81.620 -11.9404
63.940735 81.591 -12.1578
64.404076 81.564 -12.3744
64.870775 81.536 -12.5911
65.340855 81.506 -12.8086
65.814342 81.475 -13.0276
66.291260 81.443 -13.2478
66.771634 81.410 -13.4684
67.255488 81.377 -13.6882
67.742849 81.345 -13.9058
68.233742 81.312 -14.1198
68.728192 81.278 -14.3292
69.226225 81.245 -14.5336
69.727866 81.212 -14.7333
70.233143 81.179 -14.9287
70.742082 81.146 -15.1208
71.254708 81.114 -15.3105
71.771049 81.082 -15.4983
72.291131 81.051 -15.6843
72.814983 81.018 -15.8679
73.342630 80.985 -16.0480
73.874101 80.950 -16.2233
74.409423 80.915 -16.3931
74.948625 80.879 -16.5574
75.491733 80.844 -16.7175
76.038777 80.810 -16.8755
76.589786 80.776 -17.0339
77.144787 80.741 -17.1946
77.703810 80.707 -17.3585
78.266884 80.672 -17.5251
78.834038 80.636 -17.6931
79.405302 80.599 -17.8600
79.980705 80.562 -18.0238
80.560278 80.525 -18.1828
81.144051 80.489 -18.3364
81.732055 80.452 -18.4846
82.324319 80.415 -18.6284
82.920875 80.378 -18.7686
83.521754 80.340 -18.9056
84.126987 80.302 -19.0400
84.736605 80.263 -19.1716
85.350642 80.223 -19.2998
85.969128 80.183 -19.4237
86.592096 80.143 -19.5419
87.219578 80.103 -19.6533
87.851607 80.063 -19.7573
88.488216 80.023 -19.8536
89.129438 79.983 -19.9423
89.775306 79.943 -20.0230
90.425855 79.901 -20.0944
91.081118 79.859 -20.1544
91.741129 79.816 -20.2012
92.405924 79.775 -20.2343
93.075535 79.735 -20.2546
93.749999 79.697 -20.2649
94.429350 79.661 -20.2676
95.113624 79.626 -20.2645
95.802856 79.591 -20.2556
96.497083 79.557 -20.2404
97.196341 79.525 -20.2181
97.900666 79.495 -20.1898
98.610094 79.468 -20.1589
99.324664 79.445 -20.1313
100.044411 79.425 -20.1150
100.769374 79.408 -20.1171
101.499591 79.392 -20.1414
102.235098 79.375 -20.1858
102.975936 79.356 -20.2421
103.722142 79.335 -20.2995
104.473756 79.314 -20.3505
105.230815 79.293 -20.3950
105.993361 79.273 -20.4412
106.761433 79.255 -20.5001
107.535070 79.238 -20.5808
108.314314 79.220 -20.6851
109.099204 79.199 -20.8081
109.889782 79.176 -20.9409
110.686088 79.150 -21.0739
111.488165 79.122 -21.1997
112.296055 79.091 -21.3142
113.109798 79.059 -21.4163
113.929438 79.027 -21.5070
114.755018 78.993 -21.5876
115.586580 78.960 -21.6591
116.424168 78.927 -21.7211
117.267826 78.894 -21.7743
118.117597 78.863 -21.8217
118.973525 78.834 -21.8685
119.835657 78.807 -21.9215
120.704035 78.781 -21.9866
121.578706 78.755 -22.0658
122.459716 78.727 -22.1569
123.347109 78.698 -22.2548
124.240933 78.666 -22.3550
125.141234 78.634 -22.4542
126.048059 78.600 -22.5502
126.961456 78.565 -22.6409
127.881471 78.530 -22.7240
128.808153 78.494 -22.7985
129.741550 78.458 -22.8657
130.681710 78.422 -22.9279
131.628684 78.386 -22.9865
132.582520 78.350 -23.0410
133.543267 78.313 -23.0897
134.510977 78.276 -23.1316
135.485699 78.239 -23.1661
136.467484 78.203 -23.1940
137.456384 78.166 -23.2151
138.452449 78.130 -23.2296
139.455733 78.094 -23.2375
140.466286 78.059 -23.2399
141.484163 78.024 -23.2382
142.509416 77.991 -23.2340
143.542098 77.958 -23.2288
144.582263 77.925 -23.2239
145.629965 77.892 -23.2208
146.685260 77.859 -23.2206
147.748202 77.826 -23.2213
148.818846 77.791 -23.2179
149.897249 77.756 -23.2062
150.983466 77.722 -23.1853
152.077555 77.688 -23.1578
153.179572 77.656 -23.1272
154.289574 77.624 -23.0964
155.407620 77.594 -23.0680
156.533767 77.564 -23.0433
157.668076 77.535 -23.0214
158.810603 77.506 -22.9985
159.961411 77.478 -22.9714
161.120557 77.452 -22.9396
162.288103 77.429 -22.9056
163.464109 77.408 -22.8709
164.648638 77.391 -22.8340
165.841750 77.377 -22.7933
167.043507 77.366 -22.7499
168.253973 77.355 -22.7063
169.473211 77.340 -22.6638
170.701284 77.318 -22.6216
171.938256 77.287 -22.5781
173.184191 77.248 -22.5311
174.439155 77.202 -22.4786
175.703213 77.147 -22.4205
176.976431 77.086 -22.3602
178.258875 77.022 -22.3024
179.550613 76.960 -22.2487
180.851710 76.902 -22.1961
182.162236 76.850 -22.1406
183.482259 76.805 -22.0825
184.811847 76.768 -22.0283
186.151070 76.737 -21.9838
187.499997 76.710 -21.9478
188.858700 76.686 -21.9123
190.227248 76.662 -21.8709
191.605713 76.639 -21.8237
192.994167 76.617 -21.7760
194.392682 76.596 -21.7319
195.801331 76.574 -21.6898
197.220189 76.552 -21.6439
198.649327 76.529 -21.5892
200.088822 76.506 -21.5250
201.538748 76.482 -21.4541
202.999181 76.459 -21.3821
204.470197 76.435 -21.3126
205.951872 76.409 -21.2434
207.444284 76.382 -21.1677
208.947511 76.354 -21.0819
210.461631 76.325 -20.9891
211.986723 76.297 -20.8962
213.522866 76.269 -20.8063
215.070141 76.239 -20.7170
216.628627 76.209 -20.6242
218.198408 76.179 -20.5247
219.779563 76.148 -20.4163
221.372177 76.118 -20.2985
222.976331 76.089 -20.1730
224.592109 76.061 -20.0427
226.219596 76.034 -19.9100
227.858877 76.008 -19.7751
229.510036 75.983 -19.6393
231.173160 75.959 -19.5057
232.848336 75.936 -19.3759
234.535651 75.913 -19.2486
236.235193 75.890 -19.1251
237.947051 75.868 -19.0090
239.671313 75.846 -18.9033
241.408071 75.824 -18.8079
243.157413 75.800 -18.7167
244.919432 75.776 -18.6217
246.694219 75.751 -18.5211
248.481867 75.728 -18.4209
250.282469 75.705 -18.3260
252.096119 75.681 -18.2343
253.922911 75.658 -18.1400
255.762941 75.635 -18.0405
257.616305 75.612 -17.9379
259.483099 75.589 -17.8358
261.363421 75.566 -17.7356
263.257368 75.542 -17.6345
265.165039 75.517 -17.5272
267.086534 75.492 -17.4102
269.021953 75.466 -17.2845
270.971397 75.442 -17.1555
272.934968 75.418 -17.0278
274.912767 75.394 -16.9020
276.904898 75.371 -16.7767
278.911465 75.348 -16.6523
280.932573 75.326 -16.5293
282.968326 75.303 -16.4071
285.018831 75.281 -16.2845
287.084195 75.258 -16.1595
289.164526 75.236 -16.0317
291.259931 75.212 -15.9014
293.370520 75.188 -15.7670
295.496404 75.164 -15.6270
297.637693 75.139 -15.4781
299.794498 75.115 -15.3196
301.966933 75.091 -15.1565
304.155110 75.070 -14.9958
306.359143 75.049 -14.8420
308.579148 75.028 -14.6966
310.815239 75.007 -14.5558
313.067535 74.985 -14.4135
315.336151 74.963 -14.2659
317.621207 74.941 -14.1132
319.922821 74.919 -13.9583
322.241114 74.898 -13.8052
324.576206 74.877 -13.6564
326.928219 74.856 -13.5093
329.297275 74.836 -13.3585
331.683499 74.815 -13.2026
334.087014 74.795 -13.0433
336.507947 74.776 -12.8810
338.946422 74.757 -12.7196
341.402567 74.738 -12.5641
343.876511 74.720 -12.4118
346.368382 74.701 -12.2560
348.878310 74.683 -12.0963
351.406426 74.665 -11.9329
353.952862 74.647 -11.7631
356.517750 74.630 -11.5866
359.101225 74.614 -11.4067
361.703421 74.597 -11.2289
364.324473 74.581 -11.0571
366.964518 74.564 -10.8892
369.623694 74.546 -10.7219
372.302140 74.528 -10.5538
374.999995 74.510 -10.3821
377.717399 74.492 -10.2042
380.454495 74.475 -10.0214
383.211425 74.459 -9.8402
385.988333 74.442 -9.6653
388.785364 74.426 -9.4932
391.602663 74.409 -9.3159
394.440377 74.393 -9.1312
397.298655 74.378 -8.9419
400.177644 74.363 -8.7504
403.077497 74.350 -8.5593
405.998362 74.336 -8.3700
408.940394 74.322 -8.1785
411.903744 74.307 -7.9824
414.888569 74.294 -7.7874
417.895022 74.280 -7.5982
420.923262 74.266 -7.4122
423.973445 74.252 -7.2230
427.045732 74.239 -7.0263
430.140281 74.226 -6.8271
433.257255 74.213 -6.6307
436.396816 74.199 -6.4375
439.559127 74.185 -6.2456
442.744354 74.171 -6.0525
445.952662 74.157 -5.8578
449.184218 74.144 -5.6626
452.439192 74.131 -5.4659
455.717753 74.119 -5.2635
459.020072 74.107 -5.0514
462.346321 74.095 -4.8340
465.696673 74.084 -4.6176
469.071303 74.074 -4.4052
472.470387 74.065 -4.1982
475.894102 74.056 -3.9962
479.342627 74.047 -3.7958
482.816141 74.038 -3.5901
486.314826 74.027 -3.3757
489.838864 74.016 -3.1561
493.388438 74.006 -2.9340
496.963734 73.996 -2.7097
500.564938 73.987 -2.4841
504.192238 73.978 -2.2582
507.845823 73.971 -2.0309
511.525883 73.965 -1.8068
515.232610 73.959 -1.5914
518.966198 73.951 -1.3803
522.726841 73.942 -1.1622
526.514735 73.933 -0.9308
530.330078 73.924 -0.6912
534.173068 73.916 -0.4532
538.043907 73.909 -0.2219
541.942795 73.902 0.0035
545.869936 73.894 0.2279
549.825534 73.886 0.4540
553.809797 73.878 0.6804
557.822931 73.870 0.9072
561.865146 73.864 1.1390
565.936652 73.859 1.3806
570.037662 73.856 1.6316
574.168390 73.854 1.8876
578.329051 73.852 2.1426
582.519862 73.850 2.3912
586.741041 73.847 2.6312
590.992808 73.843 2.8673
595.275386 73.838 3.1099
599.588997 73.832 3.3604
603.933866 73.827 3.6199
608.310219 73.822 3.8873
612.718286 73.820 4.1520
617.158295 73.818 4.4103
621.630479 73.817 4.6704
626.135069 73.817 4.9390
630.672302 73.817 5.2118
635.242414 73.818 5.4860
639.845642 73.818 5.7611
644.482227 73.819 6.0353
649.152411 73.819 6.3083
653.856437 73.819 6.5796
658.594551 73.820 6.8472
663.366998 73.822 7.1102
668.174029 73.823 7.3785
673.015893 73.825 7.6593
677.892844 73.828 7.9481
682.805135 73.830 8.2410
687.753022 73.834 8.5371
692.736764 73.838 8.8318
697.756620 73.842 9.1212
702.812853 73.847 9.4070
707.905724 73.852 9.6933
713.035501 73.858 9.9867
718.202450 73.865 10.2926
723.406841 73.873 10.6074
728.648945 73.882 10.9204
733.929036 73.892 11.2256
739.247388 73.902 11.5261
744.604279 73.911 11.8282
749.999989 73.919 12.1298
755.434798 73.928 12.4287
760.908990 73.938 12.7291
766.422850 73.948 13.0345
771.976666 73.960 13.3464
777.570727 73.973 13.6642
783.205325 73.987 13.9865
788.880754 74.003 14.3103
794.597309 74.019 14.6311
800.355289 74.035 14.9476
806.154993 74.051 15.2629
811.996725 74.067 15.5828
817.880788 74.084 15.9089
823.807489 74.102 16.2347
829.777138 74.121 16.5548
835.790045 74.141 16.8728
841.846524 74.161 17.1920
847.946891 74.183 17.5074
854.091464 74.206 17.8148
860.280562 74.230 18.1188
866.514510 74.254 18.4323
872.793631 74.279 18.7586
879.118254 74.305 19.0854
885.488707 74.332 19.4054
891.905323 74.359 19.7223
898.368437 74.389 20.0367
904.878385 74.421 20.3436
911.435507 74.453 20.6429
918.040144 74.485 20.9388
924.692641 74.518 21.2346
931.393345 74.551 21.5311
938.142606 74.585 21.8246
944.940774 74.619 22.1113
951.788204 74.655 22.3924
958.685254 74.693 22.6688
965.632282 74.733 22.9351
972.629652 74.774 23.1898
979.677727 74.815 23.4359
986.776876 74.855 23.6761
993.927468 74.894 23.9149
1001.129876 74.935 24.1582
1008.384476 74.977 24.4060
1015.691645 75.021 24.6534
1023.051766 75.065 24.8958
1030.465221 75.110 25.1230
1037.932396 75.156 25.3308
1045.453682 75.202 25.5243
1053.029471 75.248 25.7101
1060.660156 75.294 25.8910
1068.346137 75.341 26.0677
1076.087813 75.389 26.2384
1083.885589 75.437 26.4014
1091.739871 75.485 26.5582
1099.651068 75.533 26.7081
1107.619593 75.582 26.8485
1115.645861 75.630 26.9779
1123.730291 75.679 27.1014
1131.873304 75.727 27.2241
1140.075325 75.775 27.3477
1148.336780 75.823 27.4706
1156.658102 75.872 27.5933
1165.039724 75.920 27.7136
1173.482082 75.969 27.8234
1181.985617 76.019 27.9182
1190.550772 76.069 28.0011
1199.177993 76.118 28.0780
1207.867731 76.167 28.1559
1216.620439 76.215 28.2340
1225.436572 76.264 28.3094
1234.316591 76.314 28.3814
1243.260957 76.364 28.4510
1252.270139 76.415 28.5190
1261.344604 76.466 28.5841
1270.484827 76.518 28.6454
1279.691284 76.573 28.6975
1288.964455 76.631 28.7369
1298.304823 76.692 28.7622
1307.712874 76.754 28.7734
1317.189101 76.815 28.7828
1326.733996 76.876 28.8016
1336.348058 76.935 28.8243
1346.031787 76.994 28.8449
1355.785688 77.051 28.8613
1365.610270 77.107 28.8709
1375.506045 77.159 28.8763
1385.473529 77.210 28.8808
1395.513241 77.260 28.8856
1405.625705 77.311 28.8928
1415.811448 77.362 28.9017
1426.071002 77.413 28.9095
1436.404900 77.463 28.9147
1446.813682 77.513 28.9135
1457.297890 77.562 28.9062
1467.858072 77.610 28.8994
1478.494776 77.657 28.8942
1489.208559 77.705 28.8880
1499.999978 77.751 28.8790
1510.869596 77.798 28.8648
1521.817980 77.844 28.8459
1532.845701 77.889 28.8242
1543.953332 77.935 28.8011
1555.141455 77.981 28.7784
1566.410651 78.026 28.7560
1577.761508 78.070 28.7325
1589.194618 78.115 28.7065
1600.710578 78.160 28.6767
1612.309986 78.205 28.6395
1623.993449 78.250 28.5930
1635.761575 78.295 28.5410
1647.614978 78.341 28.4850
1659.554275 78.387 28.4200
1671.580089 78.434 28.3369
1683.693048 78.479 28.2307
1695.893782 78.522 28.1070
1708.182927 78.563 27.9723
1720.561125 78.601 27.8239
1733.029020 78.636 27.6542
1745.587263 78.667 27.4662
1758.236508 78.691 27.2783
1770.977414 78.708 27.1114
1783.810646 78.719 26.9799
1796.736874 78.725 26.8947
1809.756770 78.731 26.8693
1822.871013 78.740 26.9097
1836.080288 78.757 27.0065
1849.385283 78.782 27.1394
1862.786691 78.818 27.2833
1876.285211 78.863 27.4111
1889.881547 78.915 27.5031
1903.576408 78.972 27.5540
1917.370507 79.033 27.5662
1931.264564 79.096 27.5436
1945.259304 79.159 27.4908
1959.355454 79.222 27.4083
1973.553752 79.283 27.3007
1987.854936 79.342 27.1765
2002.259752 79.402 27.0381
2016.768952 79.462 26.8867
2031.383291 79.522 26.7261
2046.103531 79.581 26.5554
2060.930441 79.638 26.3727
2075.864793 79.693 26.1796
2090.907365 79.748 25.9778
2106.058941 79.801 25.7701
2121.320313 79.853 25.5614
2136.692274 79.906 25.3512
2152.175627 79.959 25.1345
2167.771179 80.013 24.9084
2183.479742 80.067 24.6735
2199.302137 80.122 24.4318
2215.239187 80.177 24.1879
2231.291723 80.234 23.9448
2247.460582 80.293 23.7008
2263.746608 80.355 23.4513
2280.150649 80.422 23.1828
2296.673561 80.492 22.8747
2313.316204 80.566 22.5101
2330.079447 80.641 22.0833
2346.964163 80.715 21.5941
2363.971233 80.785 21.0427
2381.101543 80.850 20.4313
2398.355986 80.909 19.7661
2415.735463 80.962 19.0569
2433.240878 81.007 18.3181
2450.873144 81.041 17.5651
2468.633181 81.065 16.8130
2486.521915 81.082 16.0784
2504.540278 81.096 15.3651
2522.689209 81.114 14.6514
2540.969655 81.137 13.8976
2559.382568 81.164 13.0645
2577.928909 81.190 12.1255
2596.609645 81.208 11.0685
2615.425749 81.208 9.8925
2634.378202 81.180 8.6118
2653.467992 81.112 7.2640
2672.696115 80.992 5.9266
2692.063573 80.807 4.7479
2711.571376 80.558 3.9819
2731.220539 80.274 3.9027
2751.012089 80.011 4.5624
2770.947057 79.816 5.6910
2791.026482 79.697 6.9021
2811.251410 79.630 7.9347
2831.622897 79.589 8.7067
2852.142003 79.558 9.2585
2872.809800 79.532 9.6857
2893.627364 79.516 10.0837
2914.595781 79.518 10.4857
2935.716143 79.541 10.8397
2956.989553 79.581 11.0510
2978.417118 79.622 11.0582
2999.999956 79.646 10.8936
3021.739192 79.643 10.6752
3043.635960 79.616 10.5381
3065.691401 79.580 10.5585
3087.906665 79.550 10.7201
3110.282909 79.534 10.9528
3132.821301 79.532 11.1896
3155.523016 79.540 11.3878
3178.389237 79.552 11.5288
3201.421155 79.567 11.6134
3224.619973 79.581 11.6525
3247.986898 79.595 11.6580
3271.523150 79.608 11.6376
3295.229956 79.619 11.5975
3319.108550 79.628 11.5487
3343.160179 79.638 11.5095
3367.386096 79.649 11.4973
3391.787563 79.665 11.5281
3416.365854 79.685 11.6181
3441.122250 79.715 11.7780
3466.058040 79.760 12.0022
3491.174525 79.825 12.2612
3516.473015 79.911 12.5001
3541.954828 80.015 12.6521
3567.621293 80.129 12.6590
3593.473747 80.242 12.5020
3619.513539 80.346 12.2017
3645.742027 80.435 11.7834
3672.160576 80.503 11.2698
3698.770566 80.547 10.6931
3725.573382 80.564 10.1138
3752.570422 80.559 9.6160
3779.763094 80.544 9.2616
3807.152816 80.535 9.0386
3834.741015 80.546 8.8700
3862.529129 80.580 8.6673
3890.518607 80.633 8.3651
3918.710909 80.700 7.9227
3947.107503 80.775 7.3074
3975.709871 80.852 6.4807
4004.519504 80.923 5.4011
4033.537903 80.978 4.0285
4062.766581 80.999 2.3356
4092.207063 80.963 0.3296
4121.860882 80.840 -1.9069
4151.729585 80.595 -4.1547
4181.814729 80.203 -5.9769
4212.117883 79.679 -6.7245
4242.640625 79.110 -5.8636
4273.384548 78.627 -3.5010
4304.351254 78.323 -0.4270
4335.542358 78.197 2.4961
4366.959485 78.194 4.8312
4398.604273 78.255 6.5458
4430.478373 78.345 7.7867
4462.583446 78.445 8.7138
4494.921165 78.550 9.4363
4527.493217 78.657 10.0140
4560.301299 78.771 10.4712
4593.347122 78.892 10.8019
4626.632409 79.021 10.9824
4660.158894 79.156 10.9851
4693.928327 79.290 10.7942
4727.942466 79.417 10.4094
4762.203086 79.536 9.8342
4796.711973 79.642 9.0582
4831.470925 79.727 8.0555
4866.481755 79.775 6.8153
4901.746288 79.760 5.3871
4937.266362 79.655 3.9269
4973.043830 79.437 2.7588
5009.080555 79.117 2.3998
5045.378418 78.764 3.3291
5081.939310 78.493 5.4205
5118.765137 78.367 7.8878
5155.857819 78.363 10.0270
5193.219290 78.428 11.6167
5230.851498 78.525 12.7357
5268.756404 78.634 13.5672
5306.935985 78.753 14.2874
5345.392231 78.894 14.9633
5384.127146 79.066 15.5038
5423.142751 79.256 15.7472
5462.441079 79.432 15.6189
5502.024179 79.559 15.1923
5541.894114 79.618 14.6521
5582.052963 79.603 14.2513
5622.502820 79.533 14.2717
5663.245793 79.453 14.9218
5704.284007 79.424 16.1439
5745.619600 79.484 17.5691
5787.254728 79.624 18.7822
5829.191562 79.808 19.5715
5871.432287 80.000 19.9272
5913.979105 80.181 19.9305
5956.834236 80.340 19.6790
5999.999912 80.472 19.2595
6043.478385 80.577 18.7501
6087.271921 80.659 18.2125
6131.382802 80.724 17.6677
6175.813330 80.774 17.0999
6220.565819 80.803 16.5092
6265.642603 80.807 15.9512
6311.046032 80.787 15.5250
6356.778473 80.760 15.3047
6402.842310 80.744 15.2563
6449.239945 80.749 15.2499
6495.973796 80.763 15.1866
6543.046300 80.772 15.1002
6590.459911 80.776 15.1154
6638.217100 80.793 15.3079
6686.320358 80.847 15.6014
6734.772191 80.945 15.8026
6783.575127 81.075 15.7305
6832.731709 81.211 15.3014
6882.244499 81.328 14.5250
6932.116080 81.405 13.4685
6982.349051 81.422 12.2325
7032.946030 81.361 10.9662
7083.909656 81.208 9.9246
7135.242586 80.969 9.5049
7186.947495 80.695 10.1412
7239.027079 80.482 12.0001
7291.484053 80.430 14.6914
7344.321152 80.580 17.4340
7397.541131 80.897 19.5793
7451.146763 81.320 20.8702
7505.140844 81.797 21.3173
7559.526189 82.291 21.0148
7614.305632 82.777 20.0647
7669.482029 83.233 18.5741
7725.058258 83.647 16.6613
7781.037214 84.017 14.4379
7837.421817 84.347 11.9808
7894.215007 84.641 9.3071
7951.419743 84.894 6.3763
8009.039008 85.092 3.1378
8067.075806 85.212 -0.4052
8125.533163 85.237 -4.1580
8184.414126 85.156 -7.9200
8243.721764 84.982 -11.4261
8303.459170 84.756 -14.5145
8363.629458 84.524 -17.2769
8424.235765 84.310 -19.9758
8485.281250 84.097 -22.8325
8546.769096 83.853 -25.9116
8608.702508 83.544 -29.1291
8671.084715 83.149 -32.3004
8733.918969 82.662 -35.1814
8797.208547 82.095 -37.5247
8860.956746 81.484 -39.1661
8925.166891 80.874 -40.1035
8989.842330 80.303 -40.5023
9054.986433 79.793 -40.6194
9120.602598 79.341 -40.7097
9186.694244 78.922 -40.9285
9253.264817 78.504 -41.2632
9320.317788 78.066 -41.5557
9387.856653 77.608 -41.6202
9455.884932 77.149 -41.3726
9524.406173 76.709 -40.8649
9593.423946 76.297 -40.2050
9662.941850 75.910 -39.4670
9732.963510 75.540 -38.6526
9803.492576 75.184 -37.7202
9874.532725 74.852 -36.6619
9946.087659 74.552 -35.5475
10018.161110 74.286 -34.4927
10090.756835 74.048 -33.5933
10163.878619 73.822 -32.8912
10237.530273 73.595 -32.3853
10311.715638 73.354 -32.0653
10386.438580 73.086 -31.9232
10461.702996 72.775 -31.9260
10537.512808 72.404 -31.9608
10613.871970 71.961 -31.8069
10690.784461 71.447 -31.1736
10768.254293 70.888 -29.7970
10846.285502 70.333 -27.5691
10924.882158 69.835 -24.6254
11004.048358 69.423 -21.2858
11083.788228 69.099 -17.8729
11164.105927 68.839 -14.5610
11245.005640 68.620 -11.3807
11326.491587 68.421 -8.2889
11408.568014 68.231 -5.1866
11491.239200 68.047 -1.9293
11574.509457 67.880 1.5897
11658.383123 67.753 5.3701
11742.864573 67.687 9.3011
11827.958211 67.684 13.2070
11913.668472 67.730 16.9475
11999.999825 67.810 20.4911
12086.956770 67.914 23.8793
12174.543841 68.034 27.1499
12262.765605 68.165 30.3107
12351.626659 68.301 33.3839
12441.131638 68.442 36.4427
12531.285206 68.591 39.6027
12622.092064 68.765 42.9501
12713.556946 68.983 46.4735
12805.684621 69.259 50.0500
12898.479890 69.596 53.4901
12991.947593 69.986 56.6308
13086.092601 70.413 59.4162
13180.919822 70.860 61.8914
13276.434201 71.328 64.1433
13372.640716 71.842 66.2113
13469.544383 72.436 68.0189
13567.150254 73.146 69.3796
13665.463417 74.002 70.0400
13764.488998 75.031 69.7431
13864.232160 76.263 68.2946
13964.698101 77.700 65.5977
14065.892060 79.263 61.6671
14167.819312 80.797 56.6268
14270.485171 82.146 50.7050
14373.894990 83.197 44.2196
14478.054158 83.868 37.5388
14582.968107 84.135 31.0279
14688.642305 84.051 24.9990
14795.082262 83.713 19.6763
14902.293527 83.212 15.1891
15010.281689 82.614 11.5941
15119.052378 81.967 8.8959
15228.611264 81.317 7.0601
15338.964058 80.717 6.0136
15450.116515 80.228 5.6321
15562.074428 79.907 5.7329
15674.843635 79.782 6.0912
15788.430013 79.847 6.4692
15902.839485 80.086 6.6443
16018.078016 80.483 6.4338
16134.151612 81.008 5.7088
16251.066326 81.609 4.3843
16368.828251 82.234 2.3960
16487.443528 82.840 -0.3278
16606.918341 83.404 -3.8924
16727.258917 83.916 -8.4456
16848.471530 84.354 -14.1398
16970.562500 84.669 -21.0474
17093.538192 84.788 -29.0471
17217.405016 84.639 -37.7627
17342.169430 84.178 -46.5977
17467.837939 83.398 -54.8675
17594.417093 82.333 -61.9525
17721.913492 81.049 -67.3933
17850.333783 79.626 -70.9323
17979.684660 78.150 -72.5117
18109.972866 76.706 -72.2581
18241.205195 75.361 -70.4615
18373.388487 74.160 -67.5238
18506.529634 73.116 -63.8857
18640.635577 72.216 -59.9232
18775.713306 71.434 -55.8768
18911.769865 70.739 -51.8596
19048.812345 70.102 -47.8831
19186.847892 69.502 -43.8763
19325.883701 68.924 -39.7516
19465.927021 68.362 -35.4482
19606.985152 67.822 -30.9720
19749.065449 67.334 -26.4269
19892.175318 66.954 -22.1996
20036.322221 66.751 -19.3202
