* Measurement data measured by REW V5.40 beta 105
* Source: Microphone (USB Multi-Channel Audio Device), MICROPHONE (Master Volume), L, volume: 0.490
* Format: 256k Log Swept Sine, 1 sweep at -6.0 dBFS with no timing reference
* Dated: Nov 19, 2025 9:13:38 PM
* REW Settings:
*  C-weighting compensation: Off
*  Target level: 75.0 dB
* Note: ; 
* Measurement: PRX R
* Smoothing: 1/24 octave
* Frequency Step: 96 ppo
* Start Frequency: 20.0 Hz
*
* Freq(Hz) SPL(dB) Phase(degrees)
19.995176 81.994 41.3149
20.140070 82.014 40.8589
20.286013 82.033 40.4058
20.433014 82.052 39.9556
20.581080 82.071 39.5083
20.730219 82.089 39.0640
20.880438 82.107 38.6223
21.031747 82.124 38.1832
21.184151 82.142 37.7464
21.337660 82.160 37.3115
21.492282 82.177 36.8783
21.648024 82.195 36.4463
21.804894 82.213 36.0151
21.962902 82.231 35.5843
22.122054 82.249 35.1534
22.282359 82.267 34.7221
22.443827 82.285 34.2898
22.606464 82.303 33.8563
22.770280 82.321 33.4210
22.935282 82.339 32.9839
23.101481 82.357 32.5444
23.268884 82.374 32.1026
23.437500 82.391 31.6581
23.607337 82.407 31.2111
23.778406 82.423 30.7614
23.950714 82.439 30.3091
24.124271 82.454 29.8544
24.299085 82.468 29.3974
24.475166 82.482 28.9385
24.652524 82.494 28.4779
24.831166 82.506 28.0161
25.011103 82.517 27.5534
25.192344 82.527 27.0903
25.374898 82.536 26.6272
25.558775 82.544 26.1646
25.743984 82.551 25.7028
25.930536 82.557 25.2425
26.118439 82.562 24.7839
26.307704 82.567 24.3276
26.498340 82.570 23.8739
26.690358 82.573 23.4231
26.883768 82.574 22.9756
27.078578 82.575 22.5317
27.274801 82.575 22.0919
27.472445 82.573 21.6565
27.671522 82.571 21.2258
27.872041 82.568 20.8003
28.074014 82.564 20.3804
28.277450 82.560 19.9664
28.482360 82.555 19.5590
28.688755 82.550 19.1583
28.896645 82.544 18.7646
29.106042 82.538 18.3782
29.316956 82.532 17.9990
29.529399 82.526 17.6271
29.743381 82.520 17.2620
29.958914 82.514 16.9034
30.176009 82.509 16.5506
30.394677 82.504 16.2028
30.614929 82.500 15.8591
30.836777 82.496 15.5184
31.060233 82.493 15.1796
31.285309 82.491 14.8416
31.512015 82.489 14.5032
31.740364 82.488 14.1637
31.970368 82.488 13.8220
32.202038 82.488 13.4775
32.435387 82.488 13.1298
32.670428 82.488 12.7784
32.907171 82.488 12.4234
33.145630 82.487 12.0646
33.385817 82.486 11.7024
33.627744 82.485 11.3369
33.871425 82.484 10.9685
34.116871 82.482 10.5977
34.364096 82.479 10.2250
34.613112 82.475 9.8508
34.863933 82.470 9.4757
35.116572 82.464 9.1001
35.371041 82.458 8.7247
35.627354 82.451 8.3499
35.885524 82.443 7.9762
36.145566 82.434 7.6041
36.407491 82.425 7.2341
36.671315 82.414 6.8665
36.937051 82.404 6.5017
37.204712 82.392 6.1400
37.474312 82.380 5.7815
37.745867 82.368 5.4263
38.019389 82.355 5.0746
38.294893 82.342 4.7261
38.572393 82.329 4.3807
38.851905 82.316 4.0383
39.133442 82.303 3.6982
39.417019 82.289 3.3602
39.702651 82.276 3.0236
39.990353 82.262 2.6880
40.280139 82.248 2.3528
40.572026 82.233 2.0178
40.866027 82.218 1.6827
41.162159 82.203 1.3477
41.460437 82.188 1.0129
41.760877 82.172 0.6790
42.063493 82.156 0.3460
42.368303 82.139 0.0147
42.675321 82.122 -0.3147
42.984564 82.105 -0.6420
43.296048 82.087 -0.9673
43.609789 82.068 -1.2908
43.925803 82.050 -1.6127
44.244108 82.031 -1.9333
44.564719 82.011 -2.2524
44.887653 81.991 -2.5698
45.212928 81.971 -2.8849
45.540559 81.949 -3.1965
45.870565 81.927 -3.5038
46.202962 81.905 -3.8055
46.537767 81.882 -4.1010
46.874999 81.860 -4.3900
47.214675 81.837 -4.6728
47.556812 81.815 -4.9504
47.901428 81.793 -5.2247
48.248542 81.772 -5.4979
48.598170 81.751 -5.7722
48.950333 81.731 -6.0499
49.305047 81.711 -6.3330
49.662332 81.691 -6.6223
50.022206 81.670 -6.9178
50.384687 81.647 -7.2184
50.749795 81.624 -7.5216
51.117549 81.599 -7.8242
51.487968 81.572 -8.1227
51.861071 81.544 -8.4135
52.236878 81.514 -8.6940
52.615408 81.485 -8.9629
52.996681 81.455 -9.2202
53.380716 81.427 -9.4673
53.767535 81.399 -9.7066
54.157157 81.373 -9.9413
54.549602 81.347 -10.1747
54.944891 81.322 -10.4098
55.343044 81.297 -10.6493
55.744083 81.273 -10.8953
56.148027 81.250 -11.1492
56.554899 81.227 -11.4113
56.964719 81.203 -11.6810
57.377509 81.178 -11.9564
57.793290 81.151 -12.2346
58.212084 81.122 -12.5118
58.633913 81.090 -12.7843
59.058798 81.057 -13.0488
59.486763 81.022 -13.3031
59.917828 80.986 -13.5460
60.352018 80.950 -13.7777
60.789353 80.914 -13.9993
61.229858 80.877 -14.2124
61.673555 80.841 -14.4189
62.120467 80.804 -14.6208
62.570617 80.769 -14.8199
63.024030 80.736 -15.0182
63.480728 80.705 -15.2173
63.940735 80.676 -15.4188
64.404076 80.648 -15.6237
64.870775 80.619 -15.8328
65.340855 80.589 -16.0459
65.814342 80.556 -16.2623
66.291260 80.523 -16.4804
66.771634 80.488 -16.6985
67.255488 80.453 -16.9146
67.742849 80.418 -17.1268
68.233742 80.382 -17.3336
68.728192 80.347 -17.5341
69.226225 80.311 -17.7274
69.727866 80.275 -17.9135
70.233143 80.239 -18.0923
70.742082 80.204 -18.2648
71.254708 80.170 -18.4312
71.771049 80.136 -18.5922
72.291131 80.104 -18.7485
72.814983 80.071 -18.9011
73.342630 80.039 -19.0517
73.874101 80.006 -19.2029
74.409423 79.974 -19.3579
74.948625 79.941 -19.5196
75.491733 79.908 -19.6886
76.038777 79.873 -19.8629
76.589786 79.837 -20.0378
77.144787 79.799 -20.2082
77.703810 79.760 -20.3705
78.266884 79.720 -20.5240
78.834038 79.680 -20.6716
79.405302 79.641 -20.8167
79.980705 79.602 -20.9622
80.560278 79.563 -21.1085
81.144051 79.524 -21.2531
81.732055 79.485 -21.3923
82.324319 79.445 -21.5229
82.920875 79.405 -21.6439
83.521754 79.364 -21.7567
84.126987 79.325 -21.8645
84.736605 79.285 -21.9711
85.350642 79.247 -22.0793
85.969128 79.208 -22.1904
86.592096 79.168 -22.3036
87.219578 79.128 -22.4159
87.851607 79.086 -22.5231
88.488216 79.043 -22.6201
89.129438 78.999 -22.7021
89.775306 78.953 -22.7650
90.425855 78.905 -22.8049
91.081118 78.856 -22.8187
91.741129 78.807 -22.8044
92.405924 78.760 -22.7635
93.075535 78.717 -22.7009
93.749999 78.677 -22.6240
94.429350 78.639 -22.5385
95.113624 78.602 -22.4449
95.802856 78.566 -22.3378
96.497083 78.531 -22.2096
97.196341 78.499 -22.0566
97.900666 78.475 -21.8852
98.610094 78.458 -21.7122
99.324664 78.451 -21.5615
100.044411 78.451 -21.4565
100.769374 78.455 -21.4117
101.499591 78.460 -21.4292
102.235098 78.462 -21.5007
102.975936 78.461 -21.6129
103.722142 78.455 -21.7523
104.473756 78.445 -21.9091
105.230815 78.430 -22.0760
105.993361 78.412 -22.2479
106.761433 78.391 -22.4205
107.535070 78.368 -22.5922
108.314314 78.343 -22.7639
109.099204 78.318 -22.9387
109.889782 78.292 -23.1186
110.686088 78.265 -23.3030
111.488165 78.235 -23.4890
112.296055 78.204 -23.6735
113.109798 78.171 -23.8541
113.929438 78.135 -24.0297
114.755018 78.098 -24.1970
115.586580 78.057 -24.3516
116.424168 78.015 -24.4884
117.267826 77.972 -24.6055
118.117597 77.929 -24.7039
118.973525 77.886 -24.7857
119.835657 77.845 -24.8519
120.704035 77.804 -24.9038
121.578706 77.765 -24.9449
122.459716 77.728 -24.9805
123.347109 77.692 -25.0159
124.240933 77.657 -25.0559
125.141234 77.624 -25.1058
126.048059 77.591 -25.1730
126.961456 77.557 -25.2643
127.881471 77.519 -25.3784
128.808153 77.475 -25.4987
129.741550 77.425 -25.5981
130.681710 77.371 -25.6548
131.628684 77.317 -25.6655
132.582520 77.266 -25.6442
133.543267 77.219 -25.6101
134.510977 77.176 -25.5778
135.485699 77.134 -25.5533
136.467484 77.094 -25.5358
137.456384 77.054 -25.5212
138.452449 77.014 -25.5059
139.455733 76.975 -25.4875
140.466286 76.937 -25.4659
141.484163 76.899 -25.4412
142.509416 76.861 -25.4126
143.542098 76.824 -25.3790
144.582263 76.787 -25.3394
145.629965 76.750 -25.2930
146.685260 76.714 -25.2400
147.748202 76.679 -25.1820
148.818846 76.645 -25.1224
149.897249 76.612 -25.0646
150.983466 76.581 -25.0112
152.077555 76.550 -24.9637
153.179572 76.520 -24.9223
154.289574 76.489 -24.8835
155.407620 76.458 -24.8396
156.533767 76.428 -24.7828
157.668076 76.401 -24.7148
158.810603 76.378 -24.6499
159.961411 76.359 -24.6057
161.120557 76.341 -24.5870
162.288103 76.322 -24.5811
163.464109 76.304 -24.5708
164.648638 76.287 -24.5511
165.841750 76.273 -24.5260
167.043507 76.261 -24.4974
168.253973 76.248 -24.4652
169.473211 76.231 -24.4308
170.701284 76.206 -24.3966
171.938256 76.172 -24.3616
173.184191 76.129 -24.3214
174.439155 76.078 -24.2723
175.703213 76.018 -24.2145
176.976431 75.952 -24.1509
178.258875 75.883 -24.0839
179.550613 75.815 -24.0142
180.851710 75.752 -23.9402
182.162236 75.695 -23.8596
183.482259 75.645 -23.7687
184.811847 75.602 -23.6656
186.151070 75.566 -23.5527
187.499997 75.538 -23.4361
188.858700 75.513 -23.3198
190.227248 75.491 -23.2018
191.605713 75.469 -23.0753
192.994167 75.450 -22.9372
194.392682 75.435 -22.7997
195.801331 75.423 -22.6837
197.220189 75.412 -22.5985
198.649327 75.401 -22.5382
200.088822 75.388 -22.4932
201.538748 75.372 -22.4557
202.999181 75.354 -22.4203
204.470197 75.334 -22.3827
205.951872 75.313 -22.3412
207.444284 75.291 -22.2970
208.947511 75.267 -22.2520
210.461631 75.242 -22.2057
211.986723 75.216 -22.1573
213.522866 75.188 -22.1060
215.070141 75.159 -22.0519
216.628627 75.129 -21.9977
218.198408 75.095 -21.9429
219.779563 75.058 -21.8798
221.372177 75.018 -21.7971
222.976331 74.977 -21.6807
224.592109 74.938 -21.5137
226.219596 74.908 -21.3058
227.858877 74.889 -21.1189
229.510036 74.875 -21.0179
231.173160 74.858 -20.9926
232.848336 74.832 -20.9756
234.535651 74.802 -20.9222
236.235193 74.771 -20.8353
237.947051 74.742 -20.7352
239.671313 74.712 -20.6298
241.408071 74.683 -20.5133
243.157413 74.654 -20.3854
244.919432 74.626 -20.2559
246.694219 74.598 -20.1300
248.481867 74.569 -20.0040
250.282469 74.541 -19.8746
252.096119 74.514 -19.7446
253.922911 74.488 -19.6201
255.762941 74.461 -19.5044
257.616305 74.434 -19.3950
259.483099 74.406 -19.2827
261.363421 74.378 -19.1600
263.257368 74.351 -19.0305
265.165039 74.325 -18.9023
267.086534 74.298 -18.7766
269.021953 74.271 -18.6465
270.971397 74.243 -18.5051
272.934968 74.216 -18.3533
274.912767 74.190 -18.1981
276.904898 74.165 -18.0447
278.911465 74.141 -17.8909
280.932573 74.118 -17.7318
282.968326 74.096 -17.5707
285.018831 74.077 -17.4170
287.084195 74.058 -17.2783
289.164526 74.038 -17.1555
291.259931 74.015 -17.0392
293.370520 73.990 -16.9131
295.496404 73.964 -16.7648
297.637693 73.938 -16.6008
299.794498 73.913 -16.4358
301.966933 73.889 -16.2717
304.155110 73.864 -16.1044
306.359143 73.841 -15.9363
308.579148 73.819 -15.7711
310.815239 73.797 -15.6093
313.067535 73.775 -15.4489
315.336151 73.753 -15.2855
317.621207 73.731 -15.1166
319.922821 73.709 -14.9438
322.241114 73.686 -14.7708
324.576206 73.664 -14.5938
326.928219 73.644 -14.4106
329.297275 73.625 -14.2338
331.683499 73.607 -14.0745
334.087014 73.588 -13.9270
336.507947 73.567 -13.7782
338.946422 73.545 -13.6188
341.402567 73.522 -13.4456
343.876511 73.501 -13.2617
346.368382 73.481 -13.0763
348.878310 73.463 -12.8972
351.406426 73.445 -12.7242
353.952862 73.426 -12.5492
356.517750 73.407 -12.3616
359.101225 73.389 -12.1630
361.703421 73.372 -11.9645
364.324473 73.356 -11.7735
366.964518 73.340 -11.5897
369.623694 73.324 -11.4135
372.302140 73.307 -11.2450
374.999995 73.288 -11.0749
377.717399 73.269 -10.8920
380.454495 73.249 -10.6979
383.211425 73.230 -10.5023
385.988333 73.213 -10.3074
388.785364 73.196 -10.1072
391.602663 73.181 -9.9034
394.440377 73.167 -9.7094
397.298655 73.153 -9.5290
400.177644 73.138 -9.3513
403.077497 73.122 -9.1675
405.998362 73.106 -8.9778
408.940394 73.091 -8.7812
411.903744 73.077 -8.5768
414.888569 73.063 -8.3690
417.895022 73.050 -8.1598
420.923262 73.038 -7.9517
423.973445 73.025 -7.7507
427.045732 73.011 -7.5574
430.140281 72.997 -7.3641
433.257255 72.981 -7.1621
436.396816 72.965 -6.9487
439.559127 72.950 -6.7239
442.744354 72.935 -6.4878
445.952662 72.923 -6.2495
449.184218 72.913 -6.0209
452.439192 72.904 -5.8080
455.717753 72.894 -5.6090
459.020072 72.883 -5.4150
462.346321 72.871 -5.2159
465.696673 72.858 -5.0073
469.071303 72.846 -4.7907
472.470387 72.834 -4.5625
475.894102 72.823 -4.3219
479.342627 72.813 -4.0790
482.816141 72.804 -3.8428
486.314826 72.797 -3.6157
489.838864 72.789 -3.3972
493.388438 72.781 -3.1832
496.963734 72.773 -2.9673
500.564938 72.763 -2.7440
504.192238 72.753 -2.5114
507.845823 72.743 -2.2717
511.525883 72.734 -2.0318
515.232610 72.727 -1.7985
518.966198 72.719 -1.5734
522.726841 72.710 -1.3525
526.514735 72.700 -1.1231
530.330078 72.690 -0.8762
534.173068 72.682 -0.6205
538.043907 72.675 -0.3668
541.942795 72.670 -0.1195
545.869936 72.665 0.1206
549.825534 72.660 0.3558
553.809797 72.654 0.5934
557.822931 72.648 0.8391
561.865146 72.643 1.0903
565.936652 72.638 1.3407
570.037662 72.633 1.5894
574.168390 72.628 1.8380
578.329051 72.623 2.0848
582.519862 72.618 2.3318
586.741041 72.614 2.5850
590.992808 72.610 2.8475
595.275386 72.608 3.1163
599.588997 72.606 3.3876
603.933866 72.603 3.6609
608.310219 72.600 3.9358
612.718286 72.597 4.2141
617.158295 72.593 4.4987
621.630479 72.591 4.7864
626.135069 72.590 5.0707
630.672302 72.591 5.3493
635.242414 72.593 5.6279
639.845642 72.595 5.9060
644.482227 72.597 6.1838
649.152411 72.598 6.4689
653.856437 72.599 6.7616
658.594551 72.602 7.0535
663.366998 72.605 7.3396
668.174029 72.609 7.6245
673.015893 72.614 7.9152
677.892844 72.619 8.2116
682.805135 72.624 8.5107
687.753022 72.628 8.8122
692.736764 72.631 9.1187
697.756620 72.636 9.4308
702.812853 72.642 9.7412
707.905724 72.650 10.0405
713.035501 72.659 10.3291
718.202450 72.667 10.6145
723.406841 72.676 10.9099
728.648945 72.684 11.2273
733.929036 72.693 11.5631
739.247388 72.703 11.8994
744.604279 72.714 12.2213
749.999989 72.724 12.5262
755.434798 72.733 12.8241
760.908990 72.743 13.1294
766.422850 72.755 13.4493
771.976666 72.770 13.7786
777.570727 72.787 14.1097
783.205325 72.805 14.4427
788.880754 72.823 14.7777
794.597309 72.841 15.1119
800.355289 72.858 15.4437
806.154993 72.876 15.7766
811.996725 72.895 16.1102
817.880788 72.916 16.4343
823.807489 72.937 16.7474
829.777138 72.959 17.0597
835.790045 72.981 17.3760
841.846524 73.005 17.6962
847.946891 73.030 18.0190
854.091464 73.056 18.3435
860.280562 73.082 18.6707
866.514510 73.109 19.0032
872.793631 73.138 19.3422
879.118254 73.170 19.6788
885.488707 73.204 19.9995
891.905323 73.238 20.3052
898.368437 73.273 20.6084
904.878385 73.309 20.9103
911.435507 73.344 21.2033
918.040144 73.380 21.4856
924.692641 73.416 21.7627
931.393345 73.453 22.0399
938.142606 73.492 22.3160
944.940774 73.532 22.5870
951.788204 73.572 22.8476
958.685254 73.612 23.0980
965.632282 73.653 23.3389
972.629652 73.695 23.5674
979.677727 73.738 23.7792
986.776876 73.780 23.9742
993.927468 73.822 24.1566
1001.129876 73.864 24.3352
1008.384476 73.906 24.5164
1015.691645 73.948 24.6938
1023.051766 73.989 24.8701
1030.465221 74.029 25.0534
1037.932396 74.068 25.2472
1045.453682 74.107 25.4461
1053.029471 74.148 25.6410
1060.660156 74.189 25.8309
1068.346137 74.231 26.0187
1076.087813 74.275 26.2021
1083.885589 74.321 26.3789
1091.739871 74.370 26.5466
1099.651068 74.420 26.7059
1107.619593 74.472 26.8613
1115.645861 74.524 27.0179
1123.730291 74.576 27.1782
1131.873304 74.627 27.3394
1140.075325 74.678 27.4932
1148.336780 74.729 27.6326
1156.658102 74.780 27.7576
1165.039724 74.834 27.8698
1173.482082 74.889 27.9696
1181.985617 74.945 28.0563
1190.550772 75.001 28.1315
1199.177993 75.057 28.2013
1207.867731 75.113 28.2690
1216.620439 75.170 28.3310
1225.436572 75.227 28.3827
1234.316591 75.286 28.4236
1243.260957 75.345 28.4572
1252.270139 75.405 28.4807
1261.344604 75.465 28.4928
1270.484827 75.527 28.4958
1279.691284 75.593 28.4849
1288.964455 75.663 28.4531
1298.304823 75.737 28.3955
1307.712874 75.813 28.3121
1317.189101 75.890 28.2062
1326.733996 75.968 28.0872
1336.348058 76.043 27.9603
1346.031787 76.115 27.8184
1355.785688 76.184 27.6556
1365.610270 76.252 27.4650
1375.506045 76.319 27.2314
1385.473529 76.383 26.9430
1395.513241 76.442 26.5983
1405.625705 76.496 26.1962
1415.811448 76.540 25.7333
1426.071002 76.569 25.2087
1436.404900 76.579 24.6393
1446.813682 76.567 24.0661
1457.297890 76.531 23.5432
1467.858072 76.473 23.1259
1478.494776 76.400 22.8528
1489.208559 76.318 22.7446
1499.999978 76.235 22.8109
1510.869596 76.158 23.0443
1521.817980 76.095 23.4196
1532.845701 76.048 23.9082
1543.953332 76.021 24.4760
1555.141455 76.015 25.0768
1566.410651 76.028 25.6693
1577.761508 76.057 26.2246
1589.194618 76.099 26.7255
1600.710578 76.150 27.1636
1612.309986 76.206 27.5424
1623.993449 76.267 27.8647
1635.761575 76.329 28.1317
1647.614978 76.392 28.3445
1659.554275 76.454 28.5071
1671.580089 76.516 28.6371
1683.693048 76.578 28.7547
1695.893782 76.640 28.8627
1708.182927 76.701 28.9499
1720.561125 76.763 29.0125
1733.029020 76.824 29.0551
1745.587263 76.886 29.0823
1758.236508 76.948 29.0928
1770.977414 77.010 29.0800
1783.810646 77.072 29.0407
1796.736874 77.133 28.9769
1809.756770 77.194 28.8902
1822.871013 77.253 28.7839
1836.080288 77.311 28.6570
1849.385283 77.366 28.4978
1862.786691 77.421 28.2948
1876.285211 77.474 28.0463
1889.881547 77.523 27.7572
1903.576408 77.565 27.4344
1917.370507 77.596 27.0907
1931.264564 77.616 26.7460
1945.259304 77.624 26.4261
1959.355454 77.621 26.1624
1973.553752 77.611 25.9884
1987.854936 77.601 25.9191
2002.259752 77.598 25.9382
2016.768952 77.604 26.0102
2031.383291 77.620 26.0989
2046.103531 77.645 26.1818
2060.930441 77.676 26.2466
2075.864793 77.710 26.2850
2090.907365 77.747 26.2943
2106.058941 77.785 26.2766
2121.320313 77.825 26.2373
2136.692274 77.863 26.1815
2152.175627 77.900 26.1113
2167.771179 77.934 26.0315
2183.479742 77.966 25.9506
2199.302137 77.994 25.8716
2215.239187 78.021 25.7931
2231.291723 78.045 25.7212
2247.460582 78.067 25.6710
2263.746608 78.087 25.6636
2280.150649 78.106 25.7179
2296.673561 78.129 25.8445
2313.316204 78.158 26.0464
2330.079447 78.201 26.3174
2346.964163 78.263 26.6370
2363.971233 78.351 26.9607
2381.101543 78.468 27.2135
2398.355986 78.609 27.3023
2415.735463 78.760 27.1536
2433.240878 78.905 26.7565
2450.873144 79.033 26.1641
2468.633181 79.136 25.4548
2486.521915 79.214 24.6963
2504.540278 79.271 23.9306
2522.689209 79.308 23.1815
2540.969655 79.331 22.4664
2559.382568 79.341 21.7960
2577.928909 79.341 21.1721
2596.609645 79.335 20.5948
2615.425749 79.324 20.0642
2634.378202 79.307 19.5806
2653.467992 79.286 19.1470
2672.696115 79.262 18.7755
2692.063573 79.236 18.4832
2711.571376 79.215 18.2798
2731.220539 79.204 18.1538
2751.012089 79.206 18.0690
2770.947057 79.225 17.9832
2791.026482 79.258 17.8632
2811.251410 79.305 17.6818
2831.622897 79.363 17.4110
2852.142003 79.431 17.0155
2872.809800 79.502 16.4539
2893.627364 79.572 15.6832
2914.595781 79.628 14.6731
2935.716143 79.655 13.4229
2956.989553 79.635 11.9819
2978.417118 79.554 10.4626
2999.999956 79.405 9.0281
3021.739192 79.192 7.8547
3043.635960 78.931 7.0896
3065.691401 78.648 6.8231
3087.906665 78.371 7.0620
3110.282909 78.129 7.7168
3132.821301 77.938 8.6376
3155.523016 77.801 9.6713
3178.389237 77.709 10.7006
3201.421155 77.652 11.6610
3224.619973 77.620 12.5336
3247.986898 77.605 13.3240
3271.523150 77.603 14.0490
3295.229956 77.611 14.7220
3319.108550 77.630 15.3505
3343.160179 77.664 15.9409
3367.386096 77.715 16.4909
3391.787563 77.783 16.9906
3416.365854 77.867 17.4202
3441.122250 77.960 17.7616
3466.058040 78.058 18.0157
3491.174525 78.154 18.2035
3516.473015 78.247 18.3499
3541.954828 78.338 18.4778
3567.621293 78.427 18.5980
3593.473747 78.520 18.6992
3619.513539 78.618 18.7535
3645.742027 78.722 18.7211
3672.160576 78.828 18.5546
3698.770566 78.927 18.2211
3725.573382 79.009 17.7327
3752.570422 79.069 17.1396
3779.763094 79.105 16.4952
3807.152816 79.120 15.8284
3834.741015 79.116 15.1439
3862.529129 79.092 14.4423
3890.518607 79.040 13.7458
3918.710909 78.958 13.1222
3947.107503 78.848 12.6816
3975.709871 78.725 12.5238
4004.519504 78.609 12.6603
4033.537903 78.519 13.0017
4062.766581 78.461 13.4174
4092.207063 78.428 13.8036
4121.860882 78.411 14.1127
4151.729585 78.405 14.3422
4181.814729 78.404 14.5171
4212.117883 78.410 14.6591
4242.640625 78.421 14.7648
4273.384548 78.437 14.8181
4304.351254 78.456 14.8011
4335.542358 78.475 14.6970
4366.959485 78.491 14.5001
4398.604273 78.500 14.2129
4430.478373 78.497 13.8325
4462.583446 78.477 13.3504
4494.921165 78.427 12.7720
4527.493217 78.331 12.1609
4560.301299 78.175 11.6920
4593.347122 77.960 11.6622
4626.632409 77.726 12.3813
4660.158894 77.542 13.9131
4693.928327 77.474 15.8913
4727.942466 77.531 17.7374
4762.203086 77.667 19.0864
4796.711973 77.832 19.9141
4831.470925 77.994 20.3563
4866.481755 78.143 20.5427
4901.746288 78.274 20.5490
4937.266362 78.387 20.4124
4973.043830 78.479 20.1637
5009.080555 78.547 19.8597
5045.378418 78.594 19.5762
5081.939310 78.628 19.3690
5118.765137 78.657 19.2542
5155.857819 78.691 19.2078
5193.219290 78.732 19.1928
5230.851498 78.780 19.1874
5268.756404 78.833 19.1893
5306.935985 78.897 19.1899
5345.392231 78.974 19.1500
5384.127146 79.063 18.9944
5423.142751 79.151 18.6438
5462.441079 79.216 18.0685
5502.024179 79.236 17.3246
5541.894114 79.194 16.5614
5582.052963 79.086 16.0028
5622.502820 78.931 15.8645
5663.245793 78.766 16.2318
5704.284007 78.625 17.0111
5745.619600 78.523 18.0248
5787.254728 78.458 19.1487
5829.191562 78.426 20.3429
5871.432287 78.431 21.5712
5913.979105 78.476 22.7354
5956.834236 78.556 23.7089
5999.999912 78.652 24.4138
6043.478385 78.742 24.8556
6087.271921 78.809 25.1105
6131.382802 78.841 25.3085
6175.813330 78.838 25.6294
6220.565819 78.820 26.2533
6265.642603 78.820 27.2404
6311.046032 78.870 28.4645
6356.778473 78.978 29.7048
6402.842310 79.135 30.7879
6449.239945 79.323 31.6364
6495.973796 79.525 32.2478
6543.046300 79.733 32.6518
6590.459911 79.943 32.8760
6638.217100 80.154 32.9372
6686.320358 80.366 32.8393
6734.772191 80.577 32.5708
6783.575127 80.780 32.1207
6832.731709 80.969 31.5011
6882.244499 81.138 30.7511
6932.116080 81.287 29.9202
6982.349051 81.418 29.0431
7032.946030 81.533 28.1222
7083.909656 81.632 27.1345
7135.242586 81.703 26.0841
7186.947495 81.735 25.0823
7239.027079 81.735 24.3517
7291.484053 81.741 24.0591
7344.321152 81.804 24.0965
7397.541131 81.941 24.1038
7451.146763 82.128 23.7601
7505.140844 82.316 23.0135
7559.526189 82.473 22.0745
7614.305632 82.602 21.2561
7669.482029 82.741 20.7483
7725.058258 82.935 20.4539
7781.037214 83.200 20.0562
7837.421817 83.517 19.2528
7894.215007 83.845 17.9114
7951.419743 84.148 16.0564
8009.039008 84.400 13.7897
8067.075806 84.590 11.2275
8125.533163 84.720 8.4705
8184.414126 84.797 5.5918
8243.721764 84.829 2.6382
8303.459170 84.828 -0.3792
8363.629458 84.803 -3.5055
8424.235765 84.757 -6.8392
8485.281250 84.677 -10.4856
8546.769096 84.538 -14.4900
8608.702508 84.303 -18.7968
8671.084715 83.938 -23.2297
8733.918969 83.416 -27.4844
8797.208547 82.730 -31.1338
8860.956746 81.898 -33.6779
8925.166891 80.988 -34.6919
8989.842330 80.102 -34.0941
9054.986433 79.347 -32.3137
9120.602598 78.771 -30.0704
9186.694244 78.356 -27.9350
9253.264817 78.050 -26.1324
9320.317788 77.808 -24.6495
9387.856653 77.606 -23.4008
9455.884932 77.434 -22.3240
9524.406173 77.289 -21.3992
9593.423946 77.166 -20.6288
9662.941850 77.059 -20.0182
9732.963510 76.961 -19.5577
9803.492576 76.867 -19.2277
9874.532725 76.778 -19.0157
9946.087659 76.693 -18.9200
10018.161110 76.612 -18.9486
10090.756835 76.530 -19.1255
10163.878619 76.444 -19.4888
10237.530273 76.353 -20.0870
10311.715638 76.246 -20.9802
10386.438580 76.106 -22.2246
10461.702996 75.899 -23.8104
10537.512808 75.588 -25.5854
10613.871970 75.139 -27.2224
10690.784461 74.549 -28.2607
10768.254293 73.848 -28.2211
10846.285502 73.104 -26.7488
10924.882158 72.410 -23.7607
11004.048358 71.859 -19.5646
11083.788228 71.512 -14.8167
11164.105927 71.366 -10.2146
11245.005640 71.371 -6.1644
11326.491587 71.475 -2.7297
11408.568014 71.646 0.1624
11491.239200 71.866 2.5209
11574.509457 72.119 4.2757
11658.383123 72.381 5.3900
11742.864573 72.622 5.9054
11827.958211 72.822 5.9052
11913.668472 72.961 5.4741
11999.999825 73.025 4.7122
12086.956770 72.996 3.7917
12174.543841 72.864 2.9648
12262.765605 72.637 2.5162
12351.626659 72.340 2.6953
12441.131638 72.017 3.6668
12531.285206 71.720 5.4572
12622.092064 71.502 7.8892
12713.556946 71.399 10.5759
12805.684621 71.409 13.0449
12898.479890 71.493 14.9384
12991.947593 71.594 16.1379
13086.092601 71.657 16.7690
13180.919822 71.648 17.1279
13276.434201 71.565 17.5764
13372.640716 71.444 18.3892
13469.544383 71.347 19.6127
13567.150254 71.338 21.0208
13665.463417 71.453 22.2231
13764.488998 71.706 22.9022
13864.232160 72.124 22.9779
13964.698101 72.765 22.5529
14065.892060 73.649 21.7484
14167.819312 74.680 20.6097
14270.485171 75.701 19.1381
14373.894990 76.569 17.3615
14478.054158 77.172 15.3499
14582.968107 77.453 13.2374
14688.642305 77.437 11.2657
14795.082262 77.207 9.7451
14902.293527 76.858 8.9419
15010.281689 76.475 8.9717
15119.052378 76.135 9.7489
15228.611264 75.900 11.0210
15338.964058 75.817 12.4594
15450.116515 75.926 13.7494
15562.074428 76.245 14.6450
15674.843635 76.768 14.9600
15788.430013 77.474 14.4945
15902.839485 78.336 12.9819
16018.078016 79.312 10.1193
16134.151612 80.318 5.6520
16251.066326 81.241 -0.5367
16368.828251 81.958 -8.3566
16487.443528 82.362 -17.4581
16606.918341 82.385 -27.2382
16727.258917 82.015 -36.9490
16848.471530 81.297 -45.8845
16970.562500 80.307 -53.5507
17093.538192 79.133 -59.7306
17217.405016 77.852 -64.4249
17342.169430 76.518 -67.7393
17467.837939 75.161 -69.7933
17594.417093 73.800 -70.6550
17721.913492 72.446 -70.3267
17850.333783 71.117 -68.7842
17979.684660 69.837 -66.0042
18109.972866 68.646 -62.0015
18241.205195 67.586 -56.9197
18373.388487 66.688 -51.0941
18506.529634 65.962 -44.9803
18640.635577 65.387 -38.9647
18775.713306 64.923 -33.2769
18911.769865 64.529 -27.9142
19048.812345 64.177 -22.7356
19186.847892 63.849 -17.6075
19325.883701 63.540 -12.3942
19465.927021 63.250 -7.0228
19606.985152 62.994 -1.4851
19749.065449 62.789 4.0589
19892.175318 62.649 9.0446
20036.322221 62.579 12.2933
