* Measurement data measured by REW V5.40 beta 105
* Source: Microphone (USB Multi-Channel Audio Device), MICROPHONE (Master Volume), L, volume: 0.500
* Format: 256k Log Swept Sine, 1 sweep at -6.0 dBFS with no timing reference
* Dated: Nov 27, 2025 1:15:32 PM
* REW Settings:
*  C-weighting compensation: Off
*  Target level: 75.0 dB
* Note: ; 
* Measurement: KZ ZVX Pro R
* Smoothing: 1/24 octave
* Frequency Step: 96 ppo
* Start Frequency: 20.0 Hz
*
* Freq(Hz) SPL(dB) Phase(degrees)
19.995176 90.816 47.1941
20.140070 90.836 46.7203
20.286013 90.855 46.2473
20.433014 90.874 45.7751
20.581080 90.892 45.3036
20.730219 90.910 44.8330
20.880438 90.927 44.3632
21.031747 90.944 43.8942
21.184151 90.961 43.4261
21.337660 90.977 42.9589
21.492282 90.993 42.4926
21.648024 91.008 42.0273
21.804894 91.023 41.5630
21.962902 91.037 41.0995
22.122054 91.051 40.6371
22.282359 91.065 40.1758
22.443827 91.078 39.7154
22.606464 91.091 39.2561
22.770280 91.104 38.7979
22.935282 91.116 38.3406
23.101481 91.127 37.8845
23.268884 91.138 37.4295
23.437500 91.149 36.9756
23.607337 91.160 36.5227
23.778406 91.170 36.0710
23.950714 91.179 35.6205
24.124271 91.188 35.1710
24.299085 91.197 34.7228
24.475166 91.205 34.2757
24.652524 91.213 33.8299
24.831166 91.221 33.3852
25.011103 91.228 32.9419
25.192344 91.235 32.4998
25.374898 91.241 32.0591
25.558775 91.247 31.6197
25.743984 91.252 31.1817
25.930536 91.257 30.7451
26.118439 91.261 30.3100
26.307704 91.265 29.8765
26.498340 91.269 29.4445
26.690358 91.273 29.0140
26.883768 91.276 28.5851
27.078578 91.279 28.1579
27.274801 91.281 27.7323
27.472445 91.283 27.3083
27.671522 91.285 26.8860
27.872041 91.287 26.4653
28.074014 91.288 26.0461
28.277450 91.289 25.6284
28.482360 91.290 25.2123
28.688755 91.290 24.7974
28.896645 91.290 24.3839
29.106042 91.290 23.9717
29.316956 91.290 23.5605
29.529399 91.289 23.1505
29.743381 91.288 22.7416
29.958914 91.287 22.3335
30.176009 91.286 21.9264
30.394677 91.284 21.5201
30.614929 91.282 21.1149
30.836777 91.280 20.7104
31.060233 91.277 20.3069
31.285309 91.274 19.9044
31.512015 91.270 19.5029
31.740364 91.266 19.1026
31.970368 91.262 18.7035
32.202038 91.257 18.3057
32.435387 91.252 17.9094
32.670428 91.246 17.5145
32.907171 91.240 17.1213
33.145630 91.234 16.7297
33.385817 91.227 16.3400
33.627744 91.220 15.9521
33.871425 91.212 15.5662
34.116871 91.205 15.1821
34.364096 91.197 14.8000
34.613112 91.188 14.4199
34.863933 91.180 14.0417
35.116572 91.171 13.6655
35.371041 91.162 13.2911
35.627354 91.153 12.9186
35.885524 91.144 12.5476
36.145566 91.134 12.1783
36.407491 91.124 11.8105
36.671315 91.114 11.4442
36.937051 91.104 11.0792
37.204712 91.093 10.7156
37.474312 91.082 10.3532
37.745867 91.071 9.9922
38.019389 91.060 9.6324
38.294893 91.049 9.2740
38.572393 91.037 8.9170
38.851905 91.025 8.5612
39.133442 91.012 8.2068
39.417019 91.000 7.8538
39.702651 90.987 7.5021
39.990353 90.973 7.1519
40.280139 90.960 6.8031
40.572026 90.946 6.4559
40.866027 90.931 6.1104
41.162159 90.917 5.7665
41.460437 90.902 5.4245
41.760877 90.887 5.0844
42.063493 90.871 4.7462
42.368303 90.855 4.4100
42.675321 90.839 4.0759
42.984564 90.823 3.7438
43.296048 90.806 3.4136
43.609789 90.790 3.0854
43.925803 90.772 2.7592
44.244108 90.755 2.4348
44.564719 90.738 2.1124
44.887653 90.720 1.7919
45.212928 90.702 1.4733
45.540559 90.683 1.1567
45.870565 90.665 0.8420
46.202962 90.646 0.5294
46.537767 90.627 0.2187
46.874999 90.607 -0.0900
47.214675 90.588 -0.3966
47.556812 90.568 -0.7012
47.901428 90.547 -1.0037
48.248542 90.527 -1.3038
48.598170 90.506 -1.6013
48.950333 90.485 -1.8962
49.305047 90.463 -2.1879
49.662332 90.442 -2.4763
50.022206 90.420 -2.7612
50.384687 90.398 -3.0425
50.749795 90.375 -3.3202
51.117549 90.353 -3.5947
51.487968 90.331 -3.8662
51.861071 90.308 -4.1354
52.236878 90.286 -4.4028
52.615408 90.265 -4.6690
52.996681 90.243 -4.9344
53.380716 90.221 -5.1997
53.767535 90.199 -5.4648
54.157157 90.177 -5.7300
54.549602 90.155 -5.9951
54.944891 90.133 -6.2601
55.343044 90.110 -6.5245
55.744083 90.087 -6.7881
56.148027 90.064 -7.0503
56.554899 90.040 -7.3107
56.964719 90.015 -7.5690
57.377509 89.991 -7.8246
57.793290 89.966 -8.0771
58.212084 89.940 -8.3265
58.633913 89.915 -8.5722
59.058798 89.889 -8.8142
59.486763 89.863 -9.0526
59.917828 89.838 -9.2878
60.352018 89.812 -9.5204
60.789353 89.787 -9.7515
61.229858 89.762 -9.9819
61.673555 89.737 -10.2124
62.120467 89.712 -10.4434
62.570617 89.686 -10.6746
63.024030 89.661 -10.9053
63.480728 89.635 -11.1349
63.940735 89.610 -11.3624
64.404076 89.584 -11.5876
64.870775 89.558 -11.8105
65.340855 89.532 -12.0315
65.814342 89.505 -12.2512
66.291260 89.479 -12.4701
66.771634 89.453 -12.6884
67.255488 89.426 -12.9056
67.742849 89.399 -13.1216
68.233742 89.371 -13.3356
68.728192 89.343 -13.5471
69.226225 89.315 -13.7560
69.727866 89.287 -13.9622
70.233143 89.259 -14.1660
70.742082 89.231 -14.3679
71.254708 89.202 -14.5682
71.771049 89.173 -14.7672
72.291131 89.145 -14.9649
72.814983 89.115 -15.1609
73.342630 89.086 -15.3546
73.874101 89.056 -15.5454
74.409423 89.026 -15.7328
74.948625 88.995 -15.9166
75.491733 88.965 -16.0974
76.038777 88.934 -16.2755
76.589786 88.904 -16.4514
77.144787 88.873 -16.6254
77.703810 88.842 -16.7971
78.266884 88.811 -16.9666
78.834038 88.780 -17.1335
79.405302 88.749 -17.2980
79.980705 88.718 -17.4597
80.560278 88.686 -17.6190
81.144051 88.655 -17.7758
81.732055 88.624 -17.9301
82.324319 88.592 -18.0818
82.920875 88.560 -18.2312
83.521754 88.529 -18.3782
84.126987 88.497 -18.5231
84.736605 88.465 -18.6659
85.350642 88.433 -18.8066
85.969128 88.401 -18.9451
86.592096 88.369 -19.0810
87.219578 88.337 -19.2140
87.851607 88.304 -19.3438
88.488216 88.271 -19.4696
89.129438 88.238 -19.5912
89.775306 88.204 -19.7081
90.425855 88.171 -19.8195
91.081118 88.137 -19.9244
91.741129 88.104 -20.0221
92.405924 88.072 -20.1135
93.075535 88.042 -20.2023
93.749999 88.013 -20.2958
94.429350 87.985 -20.4025
95.113624 87.956 -20.5273
95.802856 87.926 -20.6682
96.497083 87.892 -20.8154
97.196341 87.855 -20.9565
97.900666 87.816 -21.0824
98.610094 87.775 -21.1903
99.324664 87.735 -21.2834
100.044411 87.695 -21.3671
100.769374 87.656 -21.4460
101.499591 87.617 -21.5223
102.235098 87.577 -21.5959
102.975936 87.538 -21.6659
103.722142 87.498 -21.7312
104.473756 87.458 -21.7913
105.230815 87.418 -21.8461
105.993361 87.378 -21.8953
106.761433 87.337 -21.9372
107.535070 87.296 -21.9695
108.314314 87.254 -21.9888
109.099204 87.212 -21.9913
109.889782 87.171 -21.9739
110.686088 87.132 -21.9341
111.488165 87.094 -21.8716
112.296055 87.061 -21.7885
113.109798 87.032 -21.6902
113.929438 87.009 -21.5853
114.755018 86.992 -21.4843
115.586580 86.981 -21.4006
116.424168 86.976 -21.3502
117.267826 86.974 -21.3486
118.117597 86.971 -21.4037
118.973525 86.964 -21.5076
119.835657 86.951 -21.6363
120.704035 86.930 -21.7610
121.578706 86.906 -21.8645
122.459716 86.881 -21.9474
123.347109 86.856 -22.0225
124.240933 86.832 -22.1019
125.141234 86.808 -22.1904
126.048059 86.783 -22.2855
126.961456 86.756 -22.3812
127.881471 86.728 -22.4719
128.808153 86.698 -22.5546
129.741550 86.668 -22.6287
130.681710 86.637 -22.6951
131.628684 86.606 -22.7552
132.582520 86.575 -22.8096
133.543267 86.543 -22.8584
134.510977 86.511 -22.9012
135.485699 86.479 -22.9376
136.467484 86.448 -22.9673
137.456384 86.416 -22.9907
138.452449 86.385 -23.0089
139.455733 86.354 -23.0231
140.466286 86.324 -23.0338
141.484163 86.294 -23.0418
142.509416 86.264 -23.0483
143.542098 86.234 -23.0549
144.582263 86.205 -23.0619
145.629965 86.174 -23.0668
146.685260 86.144 -23.0670
147.748202 86.114 -23.0623
148.818846 86.083 -23.0544
149.897249 86.053 -23.0448
150.983466 86.023 -23.0330
152.077555 85.993 -23.0176
153.179572 85.962 -22.9977
154.289574 85.933 -22.9742
155.407620 85.903 -22.9490
156.533767 85.873 -22.9230
157.668076 85.843 -22.8966
158.810603 85.812 -22.8688
159.961411 85.780 -22.8387
161.120557 85.746 -22.8057
162.288103 85.710 -22.7693
163.464109 85.674 -22.7295
164.648638 85.638 -22.6870
165.841750 85.601 -22.6428
167.043507 85.565 -22.5973
168.253973 85.528 -22.5505
169.473211 85.492 -22.5023
170.701284 85.455 -22.4512
171.938256 85.417 -22.3954
173.184191 85.380 -22.3339
174.439155 85.343 -22.2667
175.703213 85.306 -22.1942
176.976431 85.269 -22.1155
178.258875 85.232 -22.0300
179.550613 85.196 -21.9377
180.851710 85.160 -21.8389
182.162236 85.124 -21.7328
183.482259 85.090 -21.6187
184.811847 85.057 -21.4960
186.151070 85.025 -21.3657
187.499997 84.995 -21.2308
188.858700 84.968 -21.0954
190.227248 84.944 -20.9653
191.605713 84.921 -20.8477
192.994167 84.901 -20.7484
194.392682 84.880 -20.6705
195.801331 84.859 -20.6113
197.220189 84.836 -20.5639
198.649327 84.812 -20.5205
200.088822 84.787 -20.4761
201.538748 84.762 -20.4290
202.999181 84.737 -20.3785
204.470197 84.713 -20.3248
205.951872 84.688 -20.2683
207.444284 84.662 -20.2095
208.947511 84.637 -20.1478
210.461631 84.610 -20.0811
211.986723 84.584 -20.0074
213.522866 84.557 -19.9272
215.070141 84.530 -19.8433
216.628627 84.504 -19.7573
218.198408 84.477 -19.6694
219.779563 84.450 -19.5784
221.372177 84.423 -19.4836
222.976331 84.396 -19.3853
224.592109 84.369 -19.2828
226.219596 84.343 -19.1752
227.858877 84.316 -19.0623
229.510036 84.290 -18.9445
231.173160 84.264 -18.8234
232.848336 84.239 -18.7009
234.535651 84.214 -18.5785
236.235193 84.189 -18.4562
237.947051 84.164 -18.3323
239.671313 84.139 -18.2060
241.408071 84.115 -18.0796
243.157413 84.091 -17.9553
244.919432 84.067 -17.8328
246.694219 84.043 -17.7102
248.481867 84.018 -17.5857
250.282469 83.994 -17.4581
252.096119 83.969 -17.3264
253.922911 83.944 -17.1906
255.762941 83.919 -17.0520
257.616305 83.895 -16.9130
259.483099 83.871 -16.7745
261.363421 83.846 -16.6349
263.257368 83.822 -16.4924
265.165039 83.797 -16.3459
267.086534 83.773 -16.1962
269.021953 83.748 -16.0440
270.971397 83.725 -15.8909
272.934968 83.701 -15.7371
274.912767 83.678 -15.5815
276.904898 83.654 -15.4242
278.911465 83.632 -15.2664
280.932573 83.610 -15.1089
282.968326 83.588 -14.9507
285.018831 83.566 -14.7915
287.084195 83.544 -14.6328
289.164526 83.523 -14.4751
291.259931 83.501 -14.3160
293.370520 83.479 -14.1537
295.496404 83.458 -13.9885
297.637693 83.436 -13.8220
299.794498 83.416 -13.6555
301.966933 83.395 -13.4890
304.155110 83.374 -13.3199
306.359143 83.353 -13.1467
308.579148 83.332 -12.9708
310.815239 83.312 -12.7941
313.067535 83.292 -12.6173
315.336151 83.272 -12.4402
317.621207 83.252 -12.2611
319.922821 83.233 -12.0789
322.241114 83.214 -11.8957
324.576206 83.195 -11.7134
326.928219 83.176 -11.5310
329.297275 83.158 -11.3464
331.683499 83.139 -11.1597
334.087014 83.121 -10.9719
336.507947 83.104 -10.7854
338.946422 83.086 -10.6004
341.402567 83.068 -10.4148
343.876511 83.051 -10.2268
346.368382 83.033 -10.0369
348.878310 83.016 -9.8452
351.406426 82.999 -9.6502
353.952862 82.982 -9.4510
356.517750 82.965 -9.2499
359.101225 82.949 -9.0496
361.703421 82.933 -8.8489
364.324473 82.917 -8.6471
366.964518 82.901 -8.4447
369.623694 82.885 -8.2419
372.302140 82.870 -8.0373
374.999995 82.854 -7.8303
377.717399 82.839 -7.6212
380.454495 82.824 -7.4099
383.211425 82.810 -7.1974
385.988333 82.796 -6.9854
388.785364 82.782 -6.7739
391.602663 82.768 -6.5622
394.440377 82.755 -6.3505
397.298655 82.741 -6.1389
400.177644 82.727 -5.9263
403.077497 82.714 -5.7117
405.998362 82.700 -5.4962
408.940394 82.687 -5.2802
411.903744 82.675 -5.0625
414.888569 82.662 -4.8401
417.895022 82.650 -4.6132
420.923262 82.638 -4.3846
423.973445 82.626 -4.1567
427.045732 82.614 -3.9283
430.140281 82.602 -3.6973
433.257255 82.590 -3.4640
436.396816 82.579 -3.2295
439.559127 82.568 -2.9935
442.744354 82.558 -2.7574
445.952662 82.548 -2.5237
449.184218 82.538 -2.2931
452.439192 82.528 -2.0643
455.717753 82.518 -1.8335
459.020072 82.508 -1.5983
462.346321 82.499 -1.3580
465.696673 82.489 -1.1143
469.071303 82.480 -0.8684
472.470387 82.471 -0.6210
475.894102 82.462 -0.3717
479.342627 82.453 -0.1198
482.816141 82.445 0.1335
486.314826 82.437 0.3854
489.838864 82.429 0.6367
493.388438 82.422 0.8892
496.963734 82.414 1.1431
500.564938 82.407 1.3995
504.192238 82.400 1.6577
507.845823 82.394 1.9161
511.525883 82.388 2.1739
515.232610 82.382 2.4314
518.966198 82.376 2.6920
522.726841 82.370 2.9569
526.514735 82.365 3.2247
530.330078 82.361 3.4941
534.173068 82.356 3.7632
538.043907 82.352 4.0316
541.942795 82.348 4.3020
545.869936 82.344 4.5758
549.825534 82.340 4.8527
553.809797 82.337 5.1309
557.822931 82.334 5.4081
561.865146 82.332 5.6836
565.936652 82.329 5.9576
570.037662 82.327 6.2311
574.168390 82.325 6.5045
578.329051 82.323 6.7763
582.519862 82.321 7.0469
586.741041 82.319 7.3175
590.992808 82.318 7.5895
595.275386 82.316 7.8637
599.588997 82.313 8.1412
603.933866 82.311 8.4228
608.310219 82.308 8.7090
612.718286 82.304 9.0024
617.158295 82.301 9.3052
621.630479 82.300 9.6144
626.135069 82.300 9.9240
630.672302 82.300 10.2300
635.242414 82.302 10.5314
639.845642 82.302 10.8297
644.482227 82.300 11.1306
649.152411 82.297 11.4400
653.856437 82.292 11.7635
658.594551 82.287 12.1058
663.366998 82.284 12.4657
668.174029 82.282 12.8407
673.015893 82.283 13.2260
677.892844 82.288 13.6116
682.805135 82.295 13.9902
687.753022 82.302 14.3589
692.736764 82.311 14.7190
697.756620 82.320 15.0752
702.812853 82.330 15.4329
707.905724 82.341 15.7985
713.035501 82.351 16.1716
718.202450 82.363 16.5468
723.406841 82.374 16.9203
728.648945 82.387 17.2903
733.929036 82.400 17.6574
739.247388 82.413 18.0234
744.604279 82.428 18.3896
749.999989 82.443 18.7596
755.434798 82.458 19.1346
760.908990 82.475 19.5104
766.422850 82.493 19.8848
771.976666 82.512 20.2598
777.570727 82.530 20.6372
783.205325 82.549 21.0168
788.880754 82.569 21.3992
794.597309 82.590 21.7850
800.355289 82.611 22.1728
806.154993 82.632 22.5598
811.996725 82.652 22.9476
817.880788 82.673 23.3383
823.807489 82.696 23.7296
829.777138 82.721 24.1183
835.790045 82.747 24.5034
841.846524 82.774 24.8871
847.946891 82.802 25.2716
854.091464 82.830 25.6575
860.280562 82.860 26.0447
866.514510 82.891 26.4338
872.793631 82.922 26.8256
879.118254 82.954 27.2189
885.488707 82.987 27.6110
891.905323 83.022 27.9994
898.368437 83.058 28.3830
904.878385 83.095 28.7616
911.435507 83.134 29.1361
918.040144 83.174 29.5094
924.692641 83.215 29.8811
931.393345 83.257 30.2474
938.142606 83.301 30.6080
944.940774 83.345 30.9665
951.788204 83.390 31.3237
958.685254 83.437 31.6771
965.632282 83.485 32.0229
972.629652 83.534 32.3617
979.677727 83.584 32.6953
986.776876 83.634 33.0243
993.927468 83.686 33.3487
1001.129876 83.739 33.6661
1008.384476 83.793 33.9733
1015.691645 83.848 34.2715
1023.051766 83.905 34.5620
1030.465221 83.962 34.8452
1037.932396 84.020 35.1227
1045.453682 84.078 35.3949
1053.029471 84.136 35.6603
1060.660156 84.195 35.9169
1068.346137 84.255 36.1661
1076.087813 84.314 36.4093
1083.885589 84.374 36.6462
1091.739871 84.434 36.8759
1099.651068 84.495 37.0950
1107.619593 84.557 37.3016
1115.645861 84.619 37.4977
1123.730291 84.680 37.6875
1131.873304 84.742 37.8755
1140.075325 84.803 38.0625
1148.336780 84.865 38.2442
1156.658102 84.926 38.4170
1165.039724 84.987 38.5813
1173.482082 85.047 38.7367
1181.985617 85.108 38.8816
1190.550772 85.169 39.0186
1199.177993 85.229 39.1534
1207.867731 85.290 39.2866
1216.620439 85.349 39.4154
1225.436572 85.408 39.5406
1234.316591 85.468 39.6642
1243.260957 85.528 39.7863
1252.270139 85.590 39.9041
1261.344604 85.654 40.0134
1270.484827 85.719 40.1157
1279.691284 85.785 40.2154
1288.964455 85.851 40.3147
1298.304823 85.917 40.4152
1307.712874 85.983 40.5165
1317.189101 86.048 40.6169
1326.733996 86.112 40.7148
1336.348058 86.177 40.8087
1346.031787 86.241 40.8970
1355.785688 86.305 40.9816
1365.610270 86.370 41.0661
1375.506045 86.436 41.1521
1385.473529 86.502 41.2384
1395.513241 86.568 41.3223
1405.625705 86.633 41.4035
1415.811448 86.698 41.4848
1426.071002 86.763 41.5672
1436.404900 86.828 41.6483
1446.813682 86.894 41.7247
1457.297890 86.960 41.7965
1467.858072 87.026 41.8665
1478.494776 87.093 41.9373
1489.208559 87.161 42.0093
1499.999978 87.229 42.0815
1510.869596 87.298 42.1543
1521.817980 87.367 42.2262
1532.845701 87.437 42.2935
1543.953332 87.507 42.3549
1555.141455 87.577 42.4120
1566.410651 87.647 42.4674
1577.761508 87.718 42.5231
1589.194618 87.788 42.5791
1600.710578 87.858 42.6320
1612.309986 87.926 42.6787
1623.993449 87.994 42.7188
1635.761575 88.061 42.7535
1647.614978 88.129 42.7841
1659.554275 88.197 42.8092
1671.580089 88.265 42.8290
1683.693048 88.335 42.8452
1695.893782 88.405 42.8569
1708.182927 88.476 42.8622
1720.561125 88.548 42.8605
1733.029020 88.621 42.8525
1745.587263 88.695 42.8376
1758.236508 88.769 42.8165
1770.977414 88.844 42.7891
1783.810646 88.920 42.7545
1796.736874 88.996 42.7123
1809.756770 89.073 42.6620
1822.871013 89.150 42.6025
1836.080288 89.228 42.5349
1849.385283 89.307 42.4593
1862.786691 89.387 42.3753
1876.285211 89.468 42.2843
1889.881547 89.550 42.1864
1903.576408 89.634 42.0804
1917.370507 89.719 41.9658
1931.264564 89.806 41.8394
1945.259304 89.895 41.6957
1959.355454 89.985 41.5296
1973.553752 90.077 41.3367
1987.854936 90.171 41.1157
2002.259752 90.266 40.8684
2016.768952 90.362 40.5947
2031.383291 90.457 40.2937
2046.103531 90.552 39.9680
2060.930441 90.645 39.6220
2075.864793 90.737 39.2565
2090.907365 90.828 38.8718
2106.058941 90.917 38.4679
2121.320313 91.006 38.0436
2136.692274 91.094 37.5987
2152.175627 91.180 37.1332
2167.771179 91.265 36.6491
2183.479742 91.348 36.1475
2199.302137 91.430 35.6270
2215.239187 91.510 35.0853
2231.291723 91.589 34.5198
2247.460582 91.665 33.9304
2263.746608 91.739 33.3180
2280.150649 91.811 32.6841
2296.673561 91.881 32.0291
2313.316204 91.948 31.3533
2330.079447 92.011 30.6577
2346.964163 92.071 29.9434
2363.971233 92.128 29.2099
2381.101543 92.181 28.4561
2398.355986 92.231 27.6824
2415.735463 92.278 26.8910
2433.240878 92.320 26.0850
2450.873144 92.359 25.2662
2468.633181 92.392 24.4349
2486.521915 92.420 23.5925
2504.540278 92.444 22.7418
2522.689209 92.462 21.8853
2540.969655 92.475 21.0229
2559.382568 92.483 20.1540
2577.928909 92.486 19.2805
2596.609645 92.484 18.4062
2615.425749 92.478 17.5342
2634.378202 92.468 16.6658
2653.467992 92.452 15.8031
2672.696115 92.431 14.9482
2692.063573 92.406 14.1029
2711.571376 92.375 13.2695
2731.220539 92.340 12.4487
2751.012089 92.301 11.6416
2770.947057 92.259 10.8489
2791.026482 92.212 10.0726
2811.251410 92.161 9.3158
2831.622897 92.107 8.5811
2852.142003 92.048 7.8693
2872.809800 91.987 7.1803
2893.627364 91.923 6.5142
2914.595781 91.856 5.8693
2935.716143 91.788 5.2469
2956.989553 91.717 4.6500
2978.417118 91.644 4.0794
2999.999956 91.568 3.5366
3021.739192 91.491 3.0223
3043.635960 91.411 2.5367
3065.691401 91.330 2.0814
3087.906665 91.249 1.6564
3110.282909 91.167 1.2595
3132.821301 91.086 0.8906
3155.523016 91.005 0.5511
3178.389237 90.926 0.2386
3201.421155 90.848 -0.0504
3224.619973 90.770 -0.3188
3247.986898 90.693 -0.5679
3271.523150 90.616 -0.7967
3295.229956 90.540 -1.0076
3319.108550 90.465 -1.2035
3343.160179 90.391 -1.3821
3367.386096 90.317 -1.5392
3391.787563 90.244 -1.6746
3416.365854 90.172 -1.7907
3441.122250 90.099 -1.8890
3466.058040 90.028 -1.9677
3491.174525 89.956 -2.0245
3516.473015 89.886 -2.0594
3541.954828 89.817 -2.0686
3567.621293 89.751 -2.0449
3593.473747 89.688 -1.9844
3619.513539 89.630 -1.8912
3645.742027 89.578 -1.7781
3672.160576 89.533 -1.6587
3698.770566 89.493 -1.5430
3725.573382 89.457 -1.4399
3752.570422 89.424 -1.3561
3779.763094 89.393 -1.2894
3807.152816 89.363 -1.2305
3834.741015 89.335 -1.1698
3862.529129 89.308 -1.1027
3890.518607 89.284 -1.0300
3918.710909 89.263 -0.9570
3947.107503 89.246 -0.8892
3975.709871 89.232 -0.8359
4004.519504 89.219 -0.8097
4033.537903 89.206 -0.8175
4062.766581 89.192 -0.8607
4092.207063 89.177 -0.9346
4121.860882 89.159 -1.0320
4151.729585 89.138 -1.1455
4181.814729 89.115 -1.2687
4212.117883 89.089 -1.3975
4242.640625 89.061 -1.5315
4273.384548 89.031 -1.6702
4304.351254 89.000 -1.8120
4335.542358 88.968 -1.9550
4366.959485 88.935 -2.0967
4398.604273 88.902 -2.2390
4430.478373 88.868 -2.3867
4462.583446 88.833 -2.5435
4494.921165 88.797 -2.7087
4527.493217 88.760 -2.8828
4560.301299 88.722 -3.0672
4593.347122 88.682 -3.2646
4626.632409 88.639 -3.4762
4660.158894 88.594 -3.7006
4693.928327 88.545 -3.9366
4727.942466 88.491 -4.1824
4762.203086 88.432 -4.4351
4796.711973 88.367 -4.6917
4831.470925 88.295 -4.9500
4866.481755 88.217 -5.2064
4901.746288 88.131 -5.4518
4937.266362 88.037 -5.6731
4973.043830 87.937 -5.8547
5009.080555 87.831 -5.9826
5045.378418 87.721 -6.0439
5081.939310 87.607 -6.0292
5118.765137 87.492 -5.9323
5155.857819 87.377 -5.7524
5193.219290 87.265 -5.4957
5230.851498 87.158 -5.1724
5268.756404 87.058 -4.7974
5306.935985 86.964 -4.3857
5345.392231 86.875 -3.9505
5384.127146 86.791 -3.5005
5423.142751 86.709 -3.0380
5462.441079 86.629 -2.5586
5502.024179 86.548 -2.0522
5541.894114 86.468 -1.5079
5582.052963 86.390 -0.9164
5622.502820 86.317 -0.2747
5663.245793 86.249 0.4132
5704.284007 86.187 1.1392
5745.619600 86.133 1.8909
5787.254728 86.086 2.6575
5829.191562 86.046 3.4344
5871.432287 86.013 4.2170
5913.979105 85.985 4.9985
5956.834236 85.962 5.7762
5999.999912 85.942 6.5536
6043.478385 85.927 7.3352
6087.271921 85.915 8.1249
6131.382802 85.906 8.9271
6175.813330 85.900 9.7446
6220.565819 85.899 10.5775
6265.642603 85.901 11.4229
6311.046032 85.910 12.2797
6356.778473 85.924 13.1471
6402.842310 85.946 14.0248
6449.239945 85.974 14.9131
6495.973796 86.009 15.8117
6543.046300 86.049 16.7205
6590.459911 86.097 17.6394
6638.217100 86.153 18.5657
6686.320358 86.218 19.4930
6734.772191 86.292 20.4166
6783.575127 86.377 21.3355
6832.731709 86.471 22.2509
6882.244499 86.577 23.1599
6932.116080 86.694 24.0551
6982.349051 86.824 24.9296
7032.946030 86.966 25.7789
7083.909656 87.123 26.5959
7135.242586 87.295 27.3724
7186.947495 87.485 28.0994
7239.027079 87.692 28.7627
7291.484053 87.919 29.3434
7344.321152 88.164 29.8232
7397.541131 88.429 30.1842
7451.146763 88.713 30.4078
7505.140844 89.016 30.4707
7559.526189 89.340 30.3414
7614.305632 89.682 29.9827
7669.482029 90.043 29.3517
7725.058258 90.419 28.4009
7781.037214 90.804 27.0785
7837.421817 91.190 25.3298
7894.215007 91.565 23.1034
7951.419743 91.913 20.3637
8009.039008 92.216 17.0989
8067.075806 92.453 13.3262
8125.533163 92.609 9.1040
8184.414126 92.667 4.5355
8243.721764 92.616 -0.2358
8303.459170 92.451 -5.0363
8363.629458 92.172 -9.6862
8424.235765 91.789 -14.0226
8485.281250 91.317 -17.9130
8546.769096 90.773 -21.2664
8608.702508 90.179 -24.0402
8671.084715 89.553 -26.2282
8733.918969 88.913 -27.8533
8797.208547 88.273 -28.9619
8860.956746 87.643 -29.6080
8925.166891 87.031 -29.8486
8989.842330 86.444 -29.7357
9054.986433 85.884 -29.3152
9120.602598 85.354 -28.6356
9186.694244 84.856 -27.7422
9253.264817 84.392 -26.6726
9320.317788 83.959 -25.4657
9387.856653 83.556 -24.1536
9455.884932 83.181 -22.7531
9524.406173 82.829 -21.2694
9593.423946 82.502 -19.7030
9662.941850 82.199 -18.0618
9732.963510 81.922 -16.3624
9803.492576 81.671 -14.6191
9874.532725 81.446 -12.8409
9946.087659 81.244 -11.0353
10018.161110 81.064 -9.2129
10090.756835 80.905 -7.3853
10163.878619 80.769 -5.5592
10237.530273 80.655 -3.7390
10311.715638 80.564 -1.9321
10386.438580 80.495 -0.1524
10461.702996 80.450 1.5868
10537.512808 80.428 3.2739
10613.871970 80.431 4.8975
10690.784461 80.456 6.4460
10768.254293 80.504 7.9056
10846.285502 80.574 9.2603
10924.882158 80.664 10.4893
11004.048358 80.773 11.5691
11083.788228 80.901 12.4778
11164.105927 81.043 13.1923
11245.005640 81.196 13.6885
11326.491587 81.356 13.9463
11408.568014 81.517 13.9495
11491.239200 81.672 13.6873
11574.509457 81.816 13.1597
11658.383123 81.940 12.3762
11742.864573 82.039 11.3479
11827.958211 82.106 10.0832
11913.668472 82.131 8.6045
11999.999825 82.105 6.9731
12086.956770 82.021 5.2822
12174.543841 81.879 3.6234
12262.765605 81.682 2.0743
12351.626659 81.441 0.7031
12441.131638 81.168 -0.4343
12531.285206 80.880 -1.2980
12622.092064 80.589 -1.8605
12713.556946 80.301 -2.1101
12805.684621 80.016 -2.0521
12898.479890 79.739 -1.6996
12991.947593 79.473 -1.0709
13086.092601 79.223 -0.1921
13180.919822 78.994 0.9107
13276.434201 78.791 2.2094
13372.640716 78.618 3.6721
13469.544383 78.480 5.2737
13567.150254 78.378 6.9883
13665.463417 78.318 8.7838
13764.488998 78.302 10.6223
13864.232160 78.333 12.4606
13964.698101 78.412 14.2570
14065.892060 78.543 15.9676
14167.819312 78.727 17.5380
14270.485171 78.969 18.9080
14373.894990 79.271 20.0099
14478.054158 79.635 20.7488
14582.968107 80.058 20.9985
14688.642305 80.531 20.6175
14795.082262 81.036 19.4620
14902.293527 81.544 17.4081
15010.281689 82.020 14.3823
15119.052378 82.420 10.3947
15228.611264 82.701 5.5685
15338.964058 82.823 0.1451
15450.116515 82.763 -5.5410
15562.074428 82.519 -11.1066
15674.843635 82.113 -16.1936
15788.430013 81.587 -20.5339
15902.839485 80.995 -23.9823
16018.078016 80.397 -26.5226
16134.151612 79.848 -28.2509
16251.066326 79.383 -29.3484
16368.828251 79.024 -30.0560
16487.443528 78.780 -30.6634
16606.918341 78.650 -31.5024
16727.258917 78.614 -32.9286
16848.471530 78.635 -35.2679
16970.562500 78.648 -38.7538
17093.538192 78.574 -43.4682
17217.405016 78.327 -49.2643
17342.169430 77.828 -55.7390
17467.837939 77.026 -62.2823
17594.417093 75.904 -68.1932
17721.913492 74.479 -72.7971
17850.333783 72.796 -75.5102
17979.684660 70.912 -75.7865
18109.972866 68.902 -72.8613
18241.205195 66.914 -65.3177
18373.388487 65.313 -51.0991
18506.529634 64.724 -31.3848
18640.635577 65.348 -15.4595
18775.713306 66.480 -9.4106
18911.769865 67.351 -11.0416
19048.812345 67.599 -16.4496
19186.847892 67.183 -22.4177
19325.883701 66.236 -26.8290
19465.927021 64.957 -28.6959
19606.985152 63.540 -27.9375
19749.065449 62.168 -25.1069
19892.175318 61.051 -21.2550
20036.322221 60.428 -18.1761
