* Measurement data measured by REW V5.40 beta 105
* Source: Microphone (USB Multi-Channel Audio Device), MICROPHONE (Master Volume), L, volume: 0.500
* Format: 256k Log Swept Sine, 1 sweep at -6.0 dBFS with no timing reference
* Dated: Nov 27, 2025 1:16:24 PM
* REW Settings:
*  C-weighting compensation: Off
*  Target level: 75.0 dB
* Note: ; 
* Measurement: KZ ZVX Pro L (Sample 1)
* Smoothing: 1/24 octave
* Frequency Step: 96 ppo
* Start Frequency: 20.0 Hz
*
* Freq(Hz) SPL(dB) Phase(degrees)
19.995176 91.782 47.2392
20.140070 91.801 46.7558
20.286013 91.818 46.2733
20.433014 91.836 45.7919
20.581080 91.852 45.3115
20.730219 91.869 44.8320
20.880438 91.885 44.3534
21.031747 91.900 43.8757
21.184151 91.916 43.3989
21.337660 91.931 42.9229
21.492282 91.945 42.4479
21.648024 91.959 41.9737
21.804894 91.973 41.5004
21.962902 91.986 41.0280
22.122054 91.999 40.5565
22.282359 92.011 40.0859
22.443827 92.023 39.6163
22.606464 92.035 39.1476
22.770280 92.046 38.6800
22.935282 92.057 38.2133
23.101481 92.067 37.7477
23.268884 92.078 37.2832
23.437500 92.087 36.8198
23.607337 92.096 36.3575
23.778406 92.105 35.8964
23.950714 92.114 35.4364
24.124271 92.122 34.9776
24.299085 92.129 34.5200
24.475166 92.137 34.0635
24.652524 92.144 33.6083
24.831166 92.150 33.1543
25.011103 92.156 32.7015
25.192344 92.162 32.2499
25.374898 92.167 31.7995
25.558775 92.172 31.3503
25.743984 92.176 30.9024
25.930536 92.181 30.4556
26.118439 92.184 30.0100
26.307704 92.188 29.5656
26.498340 92.191 29.1222
26.690358 92.194 28.6801
26.883768 92.196 28.2390
27.078578 92.198 27.7991
27.274801 92.200 27.3602
27.472445 92.201 26.9224
27.671522 92.202 26.4857
27.872041 92.203 26.0502
28.074014 92.203 25.6157
28.277450 92.203 25.1824
28.482360 92.203 24.7502
28.688755 92.202 24.3192
28.896645 92.201 23.8895
29.106042 92.200 23.4611
29.316956 92.198 23.0339
29.529399 92.196 22.6082
29.743381 92.193 22.1839
29.958914 92.190 21.7610
30.176009 92.187 21.3397
30.394677 92.183 20.9200
30.614929 92.180 20.5019
30.836777 92.175 20.0854
31.060233 92.171 19.6705
31.285309 92.166 19.2572
31.512015 92.160 18.8456
31.740364 92.155 18.4354
31.970368 92.149 18.0269
32.202038 92.142 17.6198
32.435387 92.136 17.2141
32.670428 92.129 16.8098
32.907171 92.121 16.4069
33.145630 92.114 16.0051
33.385817 92.106 15.6046
33.627744 92.098 15.2052
33.871425 92.090 14.8071
34.116871 92.081 14.4102
34.364096 92.072 14.0145
34.613112 92.063 13.6202
34.863933 92.053 13.2273
35.116572 92.043 12.8358
35.371041 92.033 12.4459
35.627354 92.023 12.0576
35.885524 92.012 11.6709
36.145566 92.001 11.2859
36.407491 91.989 10.9025
36.671315 91.978 10.5208
36.937051 91.966 10.1406
37.204712 91.954 9.7621
37.474312 91.941 9.3851
37.745867 91.929 9.0096
38.019389 91.916 8.6357
38.294893 91.902 8.2636
38.572393 91.889 7.8932
38.851905 91.875 7.5245
39.133442 91.861 7.1577
39.417019 91.847 6.7927
39.702651 91.833 6.4294
39.990353 91.818 6.0677
40.280139 91.803 5.7076
40.572026 91.788 5.3489
40.866027 91.773 4.9915
41.162159 91.758 4.6354
41.460437 91.742 4.2806
41.760877 91.726 3.9272
42.063493 91.710 3.5754
42.368303 91.693 3.2252
42.675321 91.677 2.8766
42.984564 91.660 2.5300
43.296048 91.642 2.1852
43.609789 91.625 1.8422
43.925803 91.607 1.5011
44.244108 91.589 1.1619
44.564719 91.571 0.8246
44.887653 91.552 0.4893
45.212928 91.533 0.1559
45.540559 91.514 -0.1754
45.870565 91.495 -0.5043
46.202962 91.475 -0.8311
46.537767 91.456 -1.1554
46.874999 91.436 -1.4775
47.214675 91.416 -1.7972
47.556812 91.395 -2.1149
47.901428 91.375 -2.4304
48.248542 91.355 -2.7441
48.598170 91.334 -3.0560
48.950333 91.313 -3.3662
49.305047 91.292 -3.6749
49.662332 91.271 -3.9821
50.022206 91.250 -4.2878
50.384687 91.228 -4.5920
50.749795 91.206 -4.8947
51.117549 91.183 -5.1957
51.487968 91.161 -5.4951
51.861071 91.138 -5.7926
52.236878 91.115 -6.0883
52.615408 91.092 -6.3820
52.996681 91.068 -6.6736
53.380716 91.044 -6.9633
53.767535 91.021 -7.2510
54.157157 90.997 -7.5371
54.549602 90.973 -7.8217
54.944891 90.948 -8.1052
55.343044 90.924 -8.3879
55.744083 90.899 -8.6700
56.148027 90.874 -8.9516
56.554899 90.849 -9.2321
56.964719 90.823 -9.5109
57.377509 90.796 -9.7870
57.793290 90.769 -10.0593
58.212084 90.741 -10.3270
58.633913 90.713 -10.5895
59.058798 90.685 -10.8466
59.486763 90.656 -11.0989
59.917828 90.628 -11.3472
60.352018 90.601 -11.5924
60.789353 90.573 -11.8354
61.229858 90.545 -12.0770
61.673555 90.518 -12.3174
62.120467 90.490 -12.5565
62.570617 90.462 -12.7941
63.024030 90.434 -13.0298
63.480728 90.407 -13.2632
63.940735 90.379 -13.4941
64.404076 90.351 -13.7222
64.870775 90.323 -13.9476
65.340855 90.295 -14.1702
65.814342 90.267 -14.3904
66.291260 90.240 -14.6084
66.771634 90.212 -14.8248
67.255488 90.185 -15.0405
67.742849 90.158 -15.2562
68.233742 90.130 -15.4728
68.728192 90.103 -15.6908
69.226225 90.076 -15.9103
69.727866 90.048 -16.1306
70.233143 90.019 -16.3510
70.742082 89.990 -16.5698
71.254708 89.960 -16.7859
71.771049 89.930 -16.9985
72.291131 89.899 -17.2073
72.814983 89.868 -17.4124
73.342630 89.838 -17.6141
73.874101 89.807 -17.8129
74.409423 89.776 -18.0094
74.948625 89.745 -18.2039
75.491733 89.715 -18.3971
76.038777 89.684 -18.5891
76.589786 89.653 -18.7805
77.144787 89.622 -18.9709
77.703810 89.591 -19.1603
78.266884 89.559 -19.3480
78.834038 89.527 -19.5332
79.405302 89.494 -19.7152
79.980705 89.462 -19.8937
80.560278 89.429 -20.0684
81.144051 89.396 -20.2390
81.732055 89.363 -20.4056
82.324319 89.330 -20.5686
82.920875 89.297 -20.7283
83.521754 89.265 -20.8856
84.126987 89.232 -21.0415
84.736605 89.200 -21.1965
85.350642 89.168 -21.3509
85.969128 89.135 -21.5043
86.592096 89.103 -21.6562
87.219578 89.070 -21.8061
87.851607 89.037 -21.9537
88.488216 89.005 -22.0991
89.129438 88.972 -22.2426
89.775306 88.940 -22.3845
90.425855 88.907 -22.5255
91.081118 88.875 -22.6660
91.741129 88.842 -22.8070
92.405924 88.810 -22.9491
93.075535 88.776 -23.0919
93.749999 88.742 -23.2336
94.429350 88.707 -23.3711
95.113624 88.671 -23.5004
95.802856 88.635 -23.6199
96.497083 88.599 -23.7306
97.196341 88.564 -23.8358
97.900666 88.529 -23.9390
98.610094 88.495 -24.0420
99.324664 88.460 -24.1447
100.044411 88.425 -24.2454
100.769374 88.390 -24.3427
101.499591 88.354 -24.4362
102.235098 88.318 -24.5256
102.975936 88.283 -24.6112
103.722142 88.247 -24.6930
104.473756 88.212 -24.7719
105.230815 88.178 -24.8499
105.993361 88.144 -24.9296
106.761433 88.110 -25.0123
107.535070 88.076 -25.0975
108.314314 88.041 -25.1828
109.099204 88.006 -25.2657
109.889782 87.971 -25.3446
110.686088 87.935 -25.4188
111.488165 87.900 -25.4882
112.296055 87.865 -25.5532
113.109798 87.830 -25.6147
113.929438 87.796 -25.6738
114.755018 87.763 -25.7317
115.586580 87.731 -25.7903
116.424168 87.699 -25.8525
117.267826 87.667 -25.9216
118.117597 87.635 -25.9996
118.973525 87.602 -26.0847
119.835657 87.567 -26.1703
120.704035 87.529 -26.2480
121.578706 87.491 -26.3123
122.459716 87.453 -26.3632
123.347109 87.415 -26.4047
124.240933 87.379 -26.4420
125.141234 87.345 -26.4783
126.048059 87.312 -26.5153
126.961456 87.279 -26.5536
127.881471 87.247 -26.5928
128.808153 87.215 -26.6315
129.741550 87.183 -26.6686
130.681710 87.150 -26.7034
131.628684 87.117 -26.7351
132.582520 87.085 -26.7633
133.543267 87.052 -26.7876
134.510977 87.019 -26.8081
135.485699 86.987 -26.8259
136.467484 86.954 -26.8422
137.456384 86.922 -26.8575
138.452449 86.891 -26.8726
139.455733 86.859 -26.8879
140.466286 86.827 -26.9037
141.484163 86.794 -26.9189
142.509416 86.762 -26.9313
143.542098 86.728 -26.9387
144.582263 86.695 -26.9406
145.629965 86.662 -26.9384
146.685260 86.630 -26.9344
147.748202 86.598 -26.9305
148.818846 86.566 -26.9270
149.897249 86.533 -26.9225
150.983466 86.501 -26.9155
152.077555 86.468 -26.9052
153.179572 86.435 -26.8918
154.289574 86.402 -26.8763
155.407620 86.368 -26.8585
156.533767 86.334 -26.8376
157.668076 86.300 -26.8124
158.810603 86.264 -26.7825
159.961411 86.228 -26.7484
161.120557 86.190 -26.7117
162.288103 86.150 -26.6737
163.464109 86.110 -26.6350
164.648638 86.070 -26.5953
165.841750 86.029 -26.5537
167.043507 85.987 -26.5085
168.253973 85.945 -26.4594
169.473211 85.903 -26.4067
170.701284 85.861 -26.3512
171.938256 85.819 -26.2919
173.184191 85.776 -26.2274
174.439155 85.733 -26.1567
175.703213 85.690 -26.0798
176.976431 85.646 -25.9962
178.258875 85.602 -25.9056
179.550613 85.558 -25.8079
180.851710 85.513 -25.7017
182.162236 85.467 -25.5852
183.482259 85.421 -25.4554
184.811847 85.374 -25.3083
186.151070 85.327 -25.1409
187.499997 85.281 -24.9506
188.858700 85.236 -24.7345
190.227248 85.193 -24.4902
191.605713 85.154 -24.2189
192.994167 85.120 -23.9265
194.392682 85.093 -23.6221
195.801331 85.073 -23.3166
197.220189 85.061 -23.0200
198.649327 85.056 -22.7424
200.088822 85.060 -22.4971
201.538748 85.070 -22.2993
202.999181 85.084 -22.1604
204.470197 85.099 -22.0823
205.951872 85.111 -22.0596
207.444284 85.120 -22.0842
208.947511 85.122 -22.1451
210.461631 85.118 -22.2283
211.986723 85.107 -22.3190
213.522866 85.091 -22.4063
215.070141 85.069 -22.4844
216.628627 85.044 -22.5496
218.198408 85.015 -22.5990
219.779563 84.984 -22.6301
221.372177 84.951 -22.6422
222.976331 84.917 -22.6351
224.592109 84.883 -22.6099
226.219596 84.849 -22.5696
227.858877 84.816 -22.5189
229.510036 84.782 -22.4614
231.173160 84.749 -22.3975
232.848336 84.716 -22.3257
234.535651 84.683 -22.2447
236.235193 84.651 -22.1555
237.947051 84.619 -22.0603
239.671313 84.588 -21.9611
241.408071 84.557 -21.8590
243.157413 84.527 -21.7538
244.919432 84.496 -21.6444
246.694219 84.466 -21.5294
248.481867 84.435 -21.4095
250.282469 84.404 -21.2867
252.096119 84.374 -21.1620
253.922911 84.344 -21.0353
255.762941 84.314 -20.9074
257.616305 84.284 -20.7793
259.483099 84.254 -20.6492
261.363421 84.225 -20.5144
263.257368 84.196 -20.3746
265.165039 84.167 -20.2308
267.086534 84.139 -20.0848
269.021953 84.111 -19.9386
270.971397 84.083 -19.7933
272.934968 84.055 -19.6471
274.912767 84.026 -19.4973
276.904898 83.998 -19.3438
278.911465 83.970 -19.1887
280.932573 83.943 -19.0334
282.968326 83.916 -18.8767
285.018831 83.889 -18.7174
287.084195 83.862 -18.5559
289.164526 83.836 -18.3936
291.259931 83.810 -18.2297
293.370520 83.784 -18.0645
295.496404 83.759 -17.8993
297.637693 83.734 -17.7355
299.794498 83.708 -17.5712
301.966933 83.683 -17.4044
304.155110 83.658 -17.2350
306.359143 83.633 -17.0638
308.579148 83.608 -16.8905
310.815239 83.583 -16.7141
313.067535 83.559 -16.5339
315.336151 83.535 -16.3488
317.621207 83.512 -16.1596
319.922821 83.490 -15.9700
322.241114 83.467 -15.7830
324.576206 83.445 -15.5977
326.928219 83.422 -15.4124
329.297275 83.399 -15.2262
331.683499 83.376 -15.0399
334.087014 83.353 -14.8538
336.507947 83.331 -14.6664
338.946422 83.309 -14.4767
341.402567 83.287 -14.2844
343.876511 83.265 -14.0900
346.368382 83.244 -13.8937
348.878310 83.223 -13.6948
351.406426 83.202 -13.4926
353.952862 83.181 -13.2874
356.517750 83.160 -13.0809
359.101225 83.140 -12.8750
361.703421 83.119 -12.6694
364.324473 83.099 -12.4629
366.964518 83.079 -12.2539
369.623694 83.059 -12.0420
372.302140 83.040 -11.8285
374.999995 83.021 -11.6161
377.717399 83.002 -11.4047
380.454495 82.983 -11.1907
383.211425 82.965 -10.9728
385.988333 82.947 -10.7528
388.785364 82.930 -10.5323
391.602663 82.913 -10.3113
394.440377 82.896 -10.0908
397.298655 82.879 -9.8715
400.177644 82.862 -9.6500
403.077497 82.844 -9.4241
405.998362 82.827 -9.1947
408.940394 82.810 -8.9634
411.903744 82.794 -8.7316
414.888569 82.778 -8.5001
417.895022 82.762 -8.2675
420.923262 82.746 -8.0301
423.973445 82.730 -7.7867
427.045732 82.715 -7.5425
430.140281 82.700 -7.3014
433.257255 82.686 -7.0638
436.396816 82.671 -6.8276
439.559127 82.656 -6.5898
442.744354 82.641 -6.3480
445.952662 82.627 -6.1029
449.184218 82.613 -5.8571
452.439192 82.600 -5.6105
455.717753 82.586 -5.3627
459.020072 82.573 -5.1139
462.346321 82.559 -4.8619
465.696673 82.545 -4.6060
469.071303 82.533 -4.3486
472.470387 82.520 -4.0898
475.894102 82.508 -3.8282
479.342627 82.497 -3.5658
482.816141 82.486 -3.3051
486.314826 82.475 -3.0460
489.838864 82.464 -2.7869
493.388438 82.453 -2.5259
496.963734 82.442 -2.2610
500.564938 82.432 -1.9904
504.192238 82.422 -1.7152
507.845823 82.413 -1.4375
511.525883 82.405 -1.1602
515.232610 82.396 -0.8845
518.966198 82.387 -0.6088
522.726841 82.378 -0.3320
526.514735 82.369 -0.0538
530.330078 82.360 0.2262
534.173068 82.353 0.5083
538.043907 82.345 0.7938
541.942795 82.339 1.0833
545.869936 82.333 1.3736
549.825534 82.327 1.6617
553.809797 82.321 1.9475
557.822931 82.315 2.2322
561.865146 82.309 2.5186
565.936652 82.302 2.8100
570.037662 82.297 3.1053
574.168390 82.293 3.4019
578.329051 82.289 3.6993
582.519862 82.285 3.9982
586.741041 82.282 4.2979
590.992808 82.279 4.5970
595.275386 82.277 4.8941
599.588997 82.274 5.1874
603.933866 82.273 5.4768
608.310219 82.272 5.7623
612.718286 82.271 6.0410
617.158295 82.270 6.3099
621.630479 82.268 6.5706
626.135069 82.262 6.8265
630.672302 82.253 7.0865
635.242414 82.240 7.3651
639.845642 82.224 7.6768
644.482227 82.208 8.0305
649.152411 82.193 8.4220
653.856437 82.182 8.8372
658.594551 82.177 9.2623
663.366998 82.176 9.6868
668.174029 82.178 10.1021
673.015893 82.183 10.5043
677.892844 82.190 10.8948
682.805135 82.198 11.2766
687.753022 82.205 11.6527
692.736764 82.213 12.0253
697.756620 82.222 12.3974
702.812853 82.230 12.7715
707.905724 82.238 13.1472
713.035501 82.246 13.5242
718.202450 82.255 13.9045
723.406841 82.265 14.2884
728.648945 82.276 14.6704
733.929036 82.287 15.0449
739.247388 82.298 15.4139
744.604279 82.309 15.7856
749.999989 82.320 16.1647
755.434798 82.332 16.5510
760.908990 82.344 16.9459
766.422850 82.358 17.3466
771.976666 82.373 17.7456
777.570727 82.389 18.1384
783.205325 82.406 18.5283
788.880754 82.423 18.9180
794.597309 82.442 19.3080
800.355289 82.460 19.7002
806.154993 82.479 20.0966
811.996725 82.499 20.4976
817.880788 82.520 20.9039
823.807489 82.541 21.3134
829.777138 82.563 21.7239
835.790045 82.586 22.1351
841.846524 82.609 22.5457
847.946891 82.634 22.9539
854.091464 82.660 23.3585
860.280562 82.686 23.7615
866.514510 82.714 24.1658
872.793631 82.743 24.5709
879.118254 82.774 24.9744
885.488707 82.805 25.3738
891.905323 82.838 25.7691
898.368437 82.871 26.1608
904.878385 82.906 26.5507
911.435507 82.941 26.9417
918.040144 82.978 27.3320
924.692641 83.017 27.7197
931.393345 83.056 28.1045
938.142606 83.097 28.4863
944.940774 83.139 28.8649
951.788204 83.183 29.2370
958.685254 83.227 29.5992
965.632282 83.272 29.9533
972.629652 83.318 30.3040
979.677727 83.366 30.6536
986.776876 83.414 31.0015
993.927468 83.464 31.3458
1001.129876 83.514 31.6840
1008.384476 83.565 32.0138
1015.691645 83.616 32.3346
1023.051766 83.669 32.6457
1030.465221 83.723 32.9479
1037.932396 83.778 33.2424
1045.453682 83.834 33.5280
1053.029471 83.891 33.8044
1060.660156 83.948 34.0740
1068.346137 84.005 34.3404
1076.087813 84.062 34.6037
1083.885589 84.119 34.8620
1091.739871 84.176 35.1127
1099.651068 84.234 35.3531
1107.619593 84.292 35.5804
1115.645861 84.351 35.7932
1123.730291 84.410 35.9940
1131.873304 84.469 36.1891
1140.075325 84.528 36.3829
1148.336780 84.587 36.5754
1156.658102 84.646 36.7615
1165.039724 84.703 36.9400
1173.482082 84.760 37.1135
1181.985617 84.816 37.2835
1190.550772 84.873 37.4487
1199.177993 84.930 37.6062
1207.867731 84.986 37.7560
1216.620439 85.042 37.9009
1225.436572 85.099 38.0433
1234.316591 85.156 38.1837
1243.260957 85.213 38.3210
1252.270139 85.272 38.4546
1261.344604 85.333 38.5856
1270.484827 85.394 38.7151
1279.691284 85.457 38.8406
1288.964455 85.519 38.9610
1298.304823 85.580 39.0781
1307.712874 85.642 39.1955
1317.189101 85.703 39.3144
1326.733996 85.765 39.4328
1336.348058 85.827 39.5494
1346.031787 85.888 39.6634
1355.785688 85.950 39.7745
1365.610270 86.011 39.8829
1375.506045 86.071 39.9898
1385.473529 86.130 40.0957
1395.513241 86.189 40.2024
1405.625705 86.249 40.3117
1415.811448 86.310 40.4229
1426.071002 86.372 40.5327
1436.404900 86.434 40.6397
1446.813682 86.495 40.7436
1457.297890 86.557 40.8455
1467.858072 86.619 40.9466
1478.494776 86.681 41.0481
1489.208559 86.743 41.1532
1499.999978 86.805 41.2642
1510.869596 86.868 41.3799
1521.817980 86.931 41.4977
1532.845701 86.995 41.6168
1543.953332 87.060 41.7362
1555.141455 87.126 41.8536
1566.410651 87.193 41.9676
1577.761508 87.263 42.0775
1589.194618 87.333 42.1806
1600.710578 87.403 42.2739
1612.309986 87.472 42.3560
1623.993449 87.539 42.4281
1635.761575 87.605 42.4919
1647.614978 87.671 42.5494
1659.554275 87.736 42.6029
1671.580089 87.802 42.6526
1683.693048 87.868 42.6954
1695.893782 87.934 42.7301
1708.182927 88.002 42.7599
1720.561125 88.069 42.7870
1733.029020 88.137 42.8109
1745.587263 88.206 42.8313
1758.236508 88.274 42.8482
1770.977414 88.343 42.8601
1783.810646 88.412 42.8666
1796.736874 88.482 42.8677
1809.756770 88.554 42.8633
1822.871013 88.627 42.8518
1836.080288 88.701 42.8299
1849.385283 88.775 42.7961
1862.786691 88.850 42.7535
1876.285211 88.925 42.7052
1889.881547 89.001 42.6500
1903.576408 89.077 42.5853
1917.370507 89.154 42.5104
1931.264564 89.231 42.4244
1945.259304 89.309 42.3269
1959.355454 89.388 42.2178
1973.553752 89.467 42.0984
1987.854936 89.548 41.9688
2002.259752 89.630 41.8253
2016.768952 89.713 41.6650
2031.383291 89.798 41.4880
2046.103531 89.883 41.2961
2060.930441 89.969 41.0910
2075.864793 90.055 40.8719
2090.907365 90.140 40.6356
2106.058941 90.225 40.3808
2121.320313 90.309 40.1084
2136.692274 90.393 39.8191
2152.175627 90.477 39.5122
2167.771179 90.560 39.1865
2183.479742 90.642 38.8415
2199.302137 90.724 38.4779
2215.239187 90.805 38.0963
2231.291723 90.885 37.6962
2247.460582 90.964 37.2768
2263.746608 91.042 36.8378
2280.150649 91.117 36.3794
2296.673561 91.191 35.9036
2313.316204 91.262 35.4114
2330.079447 91.332 34.9023
2346.964163 91.399 34.3750
2363.971233 91.465 33.8287
2381.101543 91.529 33.2640
2398.355986 91.590 32.6811
2415.735463 91.649 32.0798
2433.240878 91.705 31.4614
2450.873144 91.757 30.8282
2468.633181 91.806 30.1826
2486.521915 91.851 29.5249
2504.540278 91.891 28.8557
2522.689209 91.927 28.1766
2540.969655 91.958 27.4901
2559.382568 91.985 26.7977
2577.928909 92.009 26.0989
2596.609645 92.028 25.3942
2615.425749 92.043 24.6880
2634.378202 92.054 23.9873
2653.467992 92.061 23.2969
2672.696115 92.063 22.6199
2692.063573 92.062 21.9592
2711.571376 92.057 21.3180
2731.220539 92.049 20.6998
2751.012089 92.039 20.1070
2770.947057 92.029 19.5385
2791.026482 92.019 18.9894
2811.251410 92.012 18.4515
2831.622897 92.008 17.9135
2852.142003 92.007 17.3630
2872.809800 92.005 16.7902
2893.627364 92.002 16.1917
2914.595781 91.995 15.5719
2935.716143 91.982 14.9410
2956.989553 91.964 14.3114
2978.417118 91.940 13.6961
2999.999956 91.913 13.1051
3021.739192 91.883 12.5428
3043.635960 91.853 12.0091
3065.691401 91.824 11.5000
3087.906665 91.797 11.0066
3110.282909 91.773 10.5152
3132.821301 91.750 10.0125
3155.523016 91.729 9.4894
3178.389237 91.706 8.9427
3201.421155 91.680 8.3759
3224.619973 91.649 7.7979
3247.986898 91.614 7.2186
3271.523150 91.573 6.6461
3295.229956 91.527 6.0873
3319.108550 91.477 5.5471
3343.160179 91.425 5.0287
3367.386096 91.369 4.5356
3391.787563 91.311 4.0717
3416.365854 91.252 3.6394
3441.122250 91.191 3.2386
3466.058040 91.129 2.8684
3491.174525 91.068 2.5276
3516.473015 91.007 2.2144
3541.954828 90.947 1.9230
3567.621293 90.889 1.6466
3593.473747 90.833 1.3821
3619.513539 90.779 1.1302
3645.742027 90.725 0.8916
3672.160576 90.673 0.6660
3698.770566 90.621 0.4546
3725.573382 90.570 0.2581
3752.570422 90.521 0.0771
3779.763094 90.473 -0.0861
3807.152816 90.428 -0.2303
3834.741015 90.386 -0.3583
3862.529129 90.350 -0.4789
3890.518607 90.319 -0.6069
3918.710909 90.294 -0.7563
3947.107503 90.272 -0.9380
3975.709871 90.252 -1.1572
4004.519504 90.230 -1.4147
4033.537903 90.206 -1.7086
4062.766581 90.177 -2.0364
4092.207063 90.145 -2.3963
4121.860882 90.109 -2.7864
4151.729585 90.069 -3.2032
4181.814729 90.025 -3.6460
4212.117883 89.978 -4.1183
4242.640625 89.926 -4.6216
4273.384548 89.867 -5.1537
4304.351254 89.801 -5.7128
4335.542358 89.723 -6.2952
4366.959485 89.633 -6.8920
4398.604273 89.530 -7.4895
4430.478373 89.410 -8.0664
4462.583446 89.274 -8.5934
4494.921165 89.123 -9.0390
4527.493217 88.958 -9.3742
4560.301299 88.785 -9.5774
4593.347122 88.609 -9.6388
4626.632409 88.435 -9.5619
4660.158894 88.267 -9.3599
4693.928327 88.107 -9.0497
4727.942466 87.958 -8.6510
4762.203086 87.819 -8.1806
4796.711973 87.693 -7.6552
4831.470925 87.580 -7.0933
4866.481755 87.481 -6.5146
4901.746288 87.395 -5.9409
4937.266362 87.321 -5.3939
4973.043830 87.257 -4.8878
5009.080555 87.202 -4.4261
5045.378418 87.153 -4.0046
5081.939310 87.106 -3.6166
5118.765137 87.059 -3.2550
5155.857819 87.011 -2.9127
5193.219290 86.960 -2.5815
5230.851498 86.907 -2.2545
5268.756404 86.851 -1.9266
5306.935985 86.793 -1.5917
5345.392231 86.733 -1.2444
5384.127146 86.671 -0.8812
5423.142751 86.607 -0.4965
5462.441079 86.542 -0.0850
5502.024179 86.474 0.3562
5541.894114 86.406 0.8301
5582.052963 86.336 1.3392
5622.502820 86.267 1.8849
5663.245793 86.199 2.4707
5704.284007 86.133 3.0981
5745.619600 86.070 3.7656
5787.254728 86.010 4.4713
5829.191562 85.954 5.2131
5871.432287 85.902 5.9881
5913.979105 85.855 6.7909
5956.834236 85.812 7.6168
5999.999912 85.774 8.4645
6043.478385 85.741 9.3352
6087.271921 85.713 10.2307
6131.382802 85.691 11.1528
6175.813330 85.674 12.1018
6220.565819 85.662 13.0779
6265.642603 85.657 14.0796
6311.046032 85.659 15.1043
6356.778473 85.669 16.1481
6402.842310 85.687 17.2087
6449.239945 85.715 18.2842
6495.973796 85.751 19.3707
6543.046300 85.797 20.4646
6590.459911 85.853 21.5627
6638.217100 85.919 22.6633
6686.320358 85.995 23.7642
6734.772191 86.083 24.8625
6783.575127 86.182 25.9536
6832.731709 86.294 27.0320
6882.244499 86.420 28.0895
6932.116080 86.561 29.1175
6982.349051 86.716 30.1101
7032.946030 86.886 31.0624
7083.909656 87.072 31.9662
7135.242586 87.275 32.8091
7186.947495 87.495 33.5761
7239.027079 87.732 34.2516
7291.484053 87.988 34.8168
7344.321152 88.262 35.2521
7397.541131 88.554 35.5393
7451.146763 88.865 35.6565
7505.140844 89.194 35.5740
7559.526189 89.539 35.2579
7614.305632 89.898 34.6724
7669.482029 90.267 33.7740
7725.058258 90.642 32.5153
7781.037214 91.012 30.8531
7837.421817 91.368 28.7527
7894.215007 91.695 26.1931
7951.419743 91.976 23.1752
8009.039008 92.193 19.7253
8067.075806 92.331 15.9039
8125.533163 92.376 11.8099
8184.414126 92.323 7.5756
8243.721764 92.167 3.3485
8303.459170 91.911 -0.7188
8363.629458 91.565 -4.4846
8424.235765 91.141 -7.8376
8485.281250 90.656 -10.6996
8546.769096 90.128 -13.0299
8608.702508 89.575 -14.8259
8671.084715 89.013 -16.1099
8733.918969 88.456 -16.9263
8797.208547 87.914 -17.3303
8860.956746 87.393 -17.3762
8925.166891 86.898 -17.1207
8989.842330 86.430 -16.6161
9054.986433 85.989 -15.9069
9120.602598 85.576 -15.0261
9186.694244 85.188 -13.9952
9253.264817 84.826 -12.8311
9320.317788 84.489 -11.5481
9387.856653 84.177 -10.1555
9455.884932 83.891 -8.6587
9524.406173 83.632 -7.0635
9593.423946 83.402 -5.3795
9662.941850 83.200 -3.6249
9732.963510 83.028 -1.8214
9803.492576 82.886 0.0125
9874.532725 82.774 1.8644
9946.087659 82.692 3.7258
10018.161110 82.640 5.5875
10090.756835 82.618 7.4335
10163.878619 82.629 9.2468
10237.530273 82.675 11.0063
10311.715638 82.757 12.6891
10386.438580 82.876 14.2709
10461.702996 83.032 15.7234
10537.512808 83.227 17.0096
10613.871970 83.462 18.0872
10690.784461 83.735 18.9125
10768.254293 84.046 19.4320
10846.285502 84.388 19.5798
10924.882158 84.755 19.2845
11004.048358 85.131 18.4794
11083.788228 85.500 17.1102
11164.105927 85.842 15.1409
11245.005640 86.138 12.5530
11326.491587 86.369 9.3635
11408.568014 86.518 5.6447
11491.239200 86.564 1.5360
11574.509457 86.491 -2.7572
11658.383123 86.288 -6.9948
11742.864573 85.956 -10.9479
11827.958211 85.513 -14.4477
11913.668472 84.986 -17.4055
11999.999825 84.400 -19.7893
12086.956770 83.776 -21.5742
12174.543841 83.131 -22.7435
12262.765605 82.484 -23.3156
12351.626659 81.851 -23.3411
12441.131638 81.250 -22.8903
12531.285206 80.698 -22.0411
12622.092064 80.204 -20.8608
12713.556946 79.769 -19.4108
12805.684621 79.384 -17.7466
12898.479890 79.041 -15.9098
12991.947593 78.735 -13.9313
13086.092601 78.463 -11.8427
13180.919822 78.229 -9.6790
13276.434201 78.036 -7.4655
13372.640716 77.886 -5.2246
13469.544383 77.779 -2.9890
13567.150254 77.715 -0.7919
13665.463417 77.692 1.3383
13764.488998 77.710 3.3779
13864.232160 77.766 5.2994
13964.698101 77.862 7.0673
14065.892060 77.996 8.6393
14167.819312 78.166 9.9797
14270.485171 78.370 11.0540
14373.894990 78.603 11.8215
14478.054158 78.860 12.2336
14582.968107 79.134 12.2350
14688.642305 79.412 11.7803
14795.082262 79.681 10.8536
14902.293527 79.926 9.4718
15010.281689 80.133 7.6799
15119.052378 80.290 5.5531
15228.611264 80.389 3.1920
15338.964058 80.429 0.7129
15450.116515 80.415 -1.7700
15562.074428 80.358 -4.1606
15674.843635 80.278 -6.3897
15788.430013 80.200 -8.4276
15902.839485 80.151 -10.3013
16018.078016 80.164 -12.1049
16134.151612 80.262 -13.9996
16251.066326 80.454 -16.2114
16368.828251 80.729 -19.0286
16487.443528 81.060 -22.7814
16606.918341 81.395 -27.7766
16727.258917 81.652 -34.1927
16848.471530 81.737 -41.9757
16970.562500 81.555 -50.7793
17093.538192 81.042 -59.9803
17217.405016 80.179 -68.8203
17342.169430 78.993 -76.5995
17467.837939 77.548 -82.8304
17594.417093 75.927 -87.2975
17721.913492 74.211 -90.0179
17850.333783 72.468 -91.1725
17979.684660 70.742 -91.0273
18109.972866 69.050 -89.8627
18241.205195 67.387 -87.9014
18373.388487 65.730 -85.2662
18506.529634 64.044 -81.9155
18640.635577 62.294 -77.5762
18775.713306 60.467 -71.4727
18911.769865 58.643 -61.3682
19048.812345 57.205 -42.6193
19186.847892 56.849 -15.7432
19325.883701 57.616 3.0529
19465.927021 58.621 9.0557
19606.985152 59.225 8.5427
19749.065449 59.330 6.1283
19892.175318 59.144 4.0851
20036.322221 58.965 3.1654
