* Measurement data measured by REW V5.40 beta 105
* Source: Microphone (USB Multi-Channel Audio Device), MICROPHONE (Master Volume), L, volume: 0.500
* Format: 256k Log Swept Sine, 1 sweep at -6.0 dBFS with no timing reference
* Dated: Nov 27, 2025 1:13:51 PM
* REW Settings:
*  C-weighting compensation: Off
*  Target level: 75.0 dB
* Note: ; 
* Measurement: KZ ZVX Pro L
* Smoothing: 1/24 octave
* Frequency Step: 96 ppo
* Start Frequency: 20.0 Hz
*
* Freq(Hz) SPL(dB) Phase(degrees)
19.995176 89.838 55.0285
20.140070 89.865 54.5213
20.286013 89.892 54.0150
20.433014 89.918 53.5096
20.581080 89.944 53.0048
20.730219 89.969 52.5008
20.880438 89.994 51.9973
21.031747 90.019 51.4944
21.184151 90.043 50.9919
21.337660 90.067 50.4897
21.492282 90.090 49.9880
21.648024 90.113 49.4867
21.804894 90.135 48.9857
21.962902 90.157 48.4852
22.122054 90.179 47.9852
22.282359 90.200 47.4857
22.443827 90.220 46.9870
22.606464 90.240 46.4890
22.770280 90.259 45.9920
22.935282 90.278 45.4960
23.101481 90.296 45.0013
23.268884 90.314 44.5077
23.437500 90.331 44.0156
23.607337 90.347 43.5249
23.778406 90.363 43.0358
23.950714 90.379 42.5483
24.124271 90.394 42.0624
24.299085 90.408 41.5782
24.475166 90.423 41.0959
24.652524 90.436 40.6154
24.831166 90.449 40.1368
25.011103 90.462 39.6602
25.192344 90.474 39.1856
25.374898 90.486 38.7132
25.558775 90.497 38.2429
25.743984 90.507 37.7749
25.930536 90.518 37.3091
26.118439 90.528 36.8455
26.307704 90.538 36.3839
26.498340 90.548 35.9243
26.690358 90.557 35.4664
26.883768 90.566 35.0099
27.078578 90.575 34.5547
27.274801 90.584 34.1002
27.472445 90.593 33.6462
27.671522 90.601 33.1924
27.872041 90.609 32.7386
28.074014 90.617 32.2845
28.277450 90.625 31.8301
28.482360 90.632 31.3752
28.688755 90.638 30.9202
28.896645 90.644 30.4649
29.106042 90.650 30.0099
29.316956 90.655 29.5554
29.529399 90.659 29.1017
29.743381 90.662 28.6493
29.958914 90.665 28.1985
30.176009 90.667 27.7497
30.394677 90.669 27.3032
30.614929 90.670 26.8592
30.836777 90.671 26.4178
31.060233 90.671 25.9791
31.285309 90.671 25.5432
31.512015 90.670 25.1097
31.740364 90.669 24.6788
31.970368 90.667 24.2501
32.202038 90.665 23.8235
32.435387 90.663 23.3988
32.670428 90.661 22.9758
32.907171 90.658 22.5544
33.145630 90.655 22.1345
33.385817 90.651 21.7159
33.627744 90.647 21.2988
33.871425 90.643 20.8831
34.116871 90.638 20.4689
34.364096 90.633 20.0562
34.613112 90.628 19.6453
34.863933 90.622 19.2363
35.116572 90.615 18.8292
35.371041 90.609 18.4244
35.627354 90.601 18.0219
35.885524 90.594 17.6216
36.145566 90.586 17.2238
36.407491 90.578 16.8282
36.671315 90.569 16.4351
36.937051 90.560 16.0443
37.204712 90.551 15.6555
37.474312 90.542 15.2689
37.745867 90.532 14.8843
38.019389 90.522 14.5015
38.294893 90.512 14.1206
38.572393 90.502 13.7416
38.851905 90.491 13.3644
39.133442 90.480 12.9893
39.417019 90.468 12.6161
39.702651 90.457 12.2451
39.990353 90.445 11.8763
40.280139 90.433 11.5097
40.572026 90.420 11.1454
40.866027 90.408 10.7833
41.162159 90.395 10.4235
41.460437 90.382 10.0657
41.760877 90.369 9.7097
42.063493 90.356 9.3553
42.368303 90.342 9.0024
42.675321 90.329 8.6506
42.984564 90.315 8.2998
43.296048 90.302 7.9497
43.609789 90.288 7.6001
43.925803 90.274 7.2512
44.244108 90.259 6.9028
44.564719 90.245 6.5554
44.887653 90.230 6.2089
45.212928 90.214 5.8638
45.540559 90.199 5.5201
45.870565 90.183 5.1781
46.202962 90.166 4.8378
46.537767 90.150 4.4992
46.874999 90.133 4.1622
47.214675 90.116 3.8268
47.556812 90.098 3.4929
47.901428 90.080 3.1609
48.248542 90.062 2.8306
48.598170 90.044 2.5026
48.950333 90.025 2.1768
49.305047 90.006 1.8536
49.662332 89.986 1.5330
50.022206 89.966 1.2150
50.384687 89.946 0.8996
50.749795 89.925 0.5865
51.117549 89.904 0.2759
51.487968 89.883 -0.0325
51.861071 89.862 -0.3387
52.236878 89.841 -0.6425
52.615408 89.819 -0.9437
52.996681 89.797 -1.2425
53.380716 89.775 -1.5386
53.767535 89.752 -1.8322
54.157157 89.730 -2.1234
54.549602 89.707 -2.4124
54.944891 89.685 -2.6996
55.343044 89.662 -2.9852
55.744083 89.639 -3.2697
56.148027 89.616 -3.5532
56.554899 89.592 -3.8354
56.964719 89.568 -4.1163
57.377509 89.544 -4.3951
57.793290 89.519 -4.6712
58.212084 89.493 -4.9437
58.633913 89.468 -5.2120
59.058798 89.442 -5.4759
59.486763 89.416 -5.7355
59.917828 89.390 -5.9913
60.352018 89.364 -6.2441
60.789353 89.338 -6.4948
61.229858 89.312 -6.7438
61.673555 89.287 -6.9916
62.120467 89.261 -7.2380
62.570617 89.234 -7.4827
63.024030 89.208 -7.7252
63.480728 89.182 -7.9653
63.940735 89.156 -8.2026
64.404076 89.130 -8.4373
64.870775 89.104 -8.6694
65.340855 89.078 -8.8996
65.814342 89.052 -9.1279
66.291260 89.026 -9.3549
66.771634 89.000 -9.5806
67.255488 88.974 -9.8055
67.742849 88.948 -10.0298
68.233742 88.921 -10.2535
68.728192 88.895 -10.4769
69.226225 88.868 -10.6998
69.727866 88.841 -10.9219
70.233143 88.814 -11.1430
70.742082 88.787 -11.3627
71.254708 88.759 -11.5808
71.771049 88.730 -11.7969
72.291131 88.702 -12.0106
72.814983 88.673 -12.2213
73.342630 88.643 -12.4286
73.874101 88.614 -12.6320
74.409423 88.584 -12.8313
74.948625 88.555 -13.0269
75.491733 88.525 -13.2192
76.038777 88.496 -13.4093
76.589786 88.466 -13.5978
77.144787 88.437 -13.7854
77.703810 88.408 -13.9720
78.266884 88.378 -14.1576
78.834038 88.349 -14.3415
79.405302 88.318 -14.5231
79.980705 88.288 -14.7020
80.560278 88.258 -14.8784
81.144051 88.228 -15.0525
81.732055 88.197 -15.2249
82.324319 88.166 -15.3958
82.920875 88.136 -15.5652
83.521754 88.105 -15.7330
84.126987 88.073 -15.8987
84.736605 88.041 -16.0621
85.350642 88.009 -16.2229
85.969128 87.977 -16.3807
86.592096 87.944 -16.5350
87.219578 87.911 -16.6854
87.851607 87.878 -16.8314
88.488216 87.845 -16.9733
89.129438 87.812 -17.1113
89.775306 87.779 -17.2466
90.425855 87.746 -17.3802
91.081118 87.713 -17.5128
91.741129 87.680 -17.6445
92.405924 87.647 -17.7744
93.075535 87.613 -17.9011
93.749999 87.580 -18.0236
94.429350 87.546 -18.1417
95.113624 87.513 -18.2570
95.802856 87.480 -18.3713
96.497083 87.447 -18.4857
97.196341 87.414 -18.6005
97.900666 87.380 -18.7147
98.610094 87.347 -18.8277
99.324664 87.313 -18.9395
100.044411 87.279 -19.0507
100.769374 87.245 -19.1622
101.499591 87.210 -19.2743
102.235098 87.174 -19.3857
102.975936 87.137 -19.4942
103.722142 87.099 -19.5974
104.473756 87.061 -19.6934
105.230815 87.023 -19.7817
105.993361 86.984 -19.8632
106.761433 86.946 -19.9386
107.535070 86.907 -20.0086
108.314314 86.869 -20.0732
109.099204 86.830 -20.1318
109.889782 86.791 -20.1838
110.686088 86.753 -20.2286
111.488165 86.715 -20.2664
112.296055 86.677 -20.2976
113.109798 86.640 -20.3226
113.929438 86.603 -20.3419
114.755018 86.567 -20.3559
115.586580 86.532 -20.3659
116.424168 86.496 -20.3730
117.267826 86.461 -20.3746
118.117597 86.424 -20.3616
118.973525 86.388 -20.3198
119.835657 86.355 -20.2405
120.704035 86.327 -20.1311
121.578706 86.308 -20.0156
122.459716 86.297 -19.9237
123.347109 86.292 -19.8762
124.240933 86.288 -19.8788
125.141234 86.284 -19.9243
126.048059 86.278 -19.9998
126.961456 86.269 -20.0946
127.881471 86.258 -20.2030
128.808153 86.242 -20.3210
129.741550 86.224 -20.4431
130.681710 86.201 -20.5618
131.628684 86.176 -20.6713
132.582520 86.148 -20.7691
133.543267 86.119 -20.8550
134.510977 86.089 -20.9301
135.485699 86.058 -20.9950
136.467484 86.027 -21.0508
137.456384 85.996 -21.0989
138.452449 85.966 -21.1406
139.455733 85.935 -21.1766
140.466286 85.905 -21.2073
141.484163 85.876 -21.2347
142.509416 85.846 -21.2626
143.542098 85.817 -21.2942
144.582263 85.787 -21.3295
145.629965 85.756 -21.3639
146.685260 85.724 -21.3911
147.748202 85.691 -21.4071
148.818846 85.658 -21.4137
149.897249 85.626 -21.4149
150.983466 85.595 -21.4137
152.077555 85.564 -21.4106
153.179572 85.532 -21.4062
154.289574 85.501 -21.4002
155.407620 85.470 -21.3909
156.533767 85.438 -21.3765
157.668076 85.406 -21.3572
158.810603 85.373 -21.3333
159.961411 85.339 -21.3033
161.120557 85.304 -21.2671
162.288103 85.268 -21.2274
163.464109 85.231 -21.1866
164.648638 85.193 -21.1436
165.841750 85.156 -21.0955
167.043507 85.118 -21.0424
168.253973 85.081 -20.9855
169.473211 85.043 -20.9236
170.701284 85.006 -20.8546
171.938256 84.969 -20.7781
173.184191 84.932 -20.6951
174.439155 84.895 -20.6041
175.703213 84.859 -20.5012
176.976431 84.823 -20.3848
178.258875 84.789 -20.2572
179.550613 84.757 -20.1207
180.851710 84.726 -19.9756
182.162236 84.698 -19.8224
183.482259 84.674 -19.6666
184.811847 84.653 -19.5199
186.151070 84.635 -19.3932
187.499997 84.619 -19.2899
188.858700 84.603 -19.2087
190.227248 84.587 -19.1508
191.605713 84.569 -19.1167
192.994167 84.550 -19.1003
194.392682 84.527 -19.0906
195.801331 84.503 -19.0798
197.220189 84.477 -19.0665
198.649327 84.451 -19.0519
200.088822 84.425 -19.0361
201.538748 84.399 -19.0167
202.999181 84.373 -18.9910
204.470197 84.346 -18.9578
205.951872 84.320 -18.9178
207.444284 84.293 -18.8708
208.947511 84.266 -18.8152
210.461631 84.240 -18.7510
211.986723 84.214 -18.6809
213.522866 84.190 -18.6097
215.070141 84.165 -18.5422
216.628627 84.141 -18.4796
218.198408 84.115 -18.4176
219.779563 84.088 -18.3495
221.372177 84.061 -18.2700
222.976331 84.034 -18.1788
224.592109 84.008 -18.0797
226.219596 83.983 -17.9770
227.858877 83.959 -17.8737
229.510036 83.935 -17.7714
231.173160 83.912 -17.6709
232.848336 83.889 -17.5723
234.535651 83.866 -17.4746
236.235193 83.843 -17.3766
237.947051 83.820 -17.2786
239.671313 83.797 -17.1836
241.408071 83.774 -17.0928
243.157413 83.749 -17.0012
244.919432 83.724 -16.9019
246.694219 83.699 -16.7921
248.481867 83.675 -16.6731
250.282469 83.650 -16.5484
252.096119 83.626 -16.4208
253.922911 83.602 -16.2911
255.762941 83.577 -16.1584
257.616305 83.551 -16.0209
259.483099 83.526 -15.8785
261.363421 83.500 -15.7333
263.257368 83.475 -15.5880
265.165039 83.451 -15.4460
267.086534 83.427 -15.3105
269.021953 83.403 -15.1820
270.971397 83.380 -15.0577
272.934968 83.358 -14.9335
274.912767 83.336 -14.8068
276.904898 83.315 -14.6777
278.911465 83.294 -14.5466
280.932573 83.273 -14.4133
282.968326 83.252 -14.2762
285.018831 83.231 -14.1335
287.084195 83.209 -13.9843
289.164526 83.187 -13.8306
291.259931 83.165 -13.6760
293.370520 83.143 -13.5238
295.496404 83.121 -13.3731
297.637693 83.098 -13.2202
299.794498 83.075 -13.0626
301.966933 83.053 -12.9019
304.155110 83.030 -12.7412
306.359143 83.008 -12.5815
308.579148 82.985 -12.4199
310.815239 82.963 -12.2540
313.067535 82.941 -12.0845
315.336151 82.919 -11.9137
317.621207 82.899 -11.7443
319.922821 82.879 -11.5771
322.241114 82.859 -11.4102
324.576206 82.840 -11.2419
326.928219 82.821 -11.0729
329.297275 82.803 -10.9036
331.683499 82.785 -10.7345
334.087014 82.768 -10.5660
336.507947 82.750 -10.3987
338.946422 82.733 -10.2319
341.402567 82.716 -10.0629
343.876511 82.698 -9.8889
346.368382 82.681 -9.7097
348.878310 82.664 -9.5287
351.406426 82.647 -9.3470
353.952862 82.631 -9.1632
356.517750 82.615 -8.9779
359.101225 82.600 -8.7932
361.703421 82.584 -8.6094
364.324473 82.567 -8.4244
366.964518 82.551 -8.2373
369.623694 82.535 -8.0487
372.302140 82.519 -7.8602
374.999995 82.503 -7.6721
377.717399 82.487 -7.4810
380.454495 82.472 -7.2853
383.211425 82.458 -7.0884
385.988333 82.445 -6.8923
388.785364 82.431 -6.6953
391.602663 82.417 -6.4960
394.440377 82.403 -6.2948
397.298655 82.389 -6.0924
400.177644 82.375 -5.8882
403.077497 82.361 -5.6837
405.998362 82.347 -5.4808
408.940394 82.333 -5.2797
411.903744 82.320 -5.0783
414.888569 82.306 -4.8735
417.895022 82.292 -4.6635
420.923262 82.279 -4.4506
423.973445 82.267 -4.2378
427.045732 82.255 -4.0250
430.140281 82.243 -3.8110
433.257255 82.231 -3.5965
436.396816 82.219 -3.3823
439.559127 82.208 -3.1678
442.744354 82.197 -2.9518
445.952662 82.186 -2.7350
449.184218 82.176 -2.5178
452.439192 82.166 -2.2990
455.717753 82.156 -2.0785
459.020072 82.145 -1.8569
462.346321 82.135 -1.6328
465.696673 82.124 -1.4044
469.071303 82.114 -1.1726
472.470387 82.104 -0.9419
475.894102 82.095 -0.7135
479.342627 82.085 -0.4830
482.816141 82.076 -0.2457
486.314826 82.067 -0.0032
489.838864 82.058 0.2396
493.388438 82.050 0.4799
496.963734 82.042 0.7184
500.564938 82.035 0.9564
504.192238 82.027 1.1954
507.845823 82.020 1.4350
511.525883 82.014 1.6742
515.232610 82.007 1.9146
518.966198 81.999 2.1587
522.726841 81.992 2.4082
526.514735 81.984 2.6642
530.330078 81.977 2.9244
534.173068 81.970 3.1858
538.043907 81.963 3.4470
541.942795 81.956 3.7085
545.869936 81.950 3.9709
549.825534 81.944 4.2338
553.809797 81.939 4.4974
557.822931 81.934 4.7619
561.865146 81.930 5.0255
565.936652 81.926 5.2892
570.037662 81.921 5.5562
574.168390 81.917 5.8268
578.329051 81.914 6.0995
582.519862 81.910 6.3745
586.741041 81.907 6.6539
590.992808 81.904 6.9367
595.275386 81.900 7.2220
599.588997 81.897 7.5096
603.933866 81.894 7.8003
608.310219 81.891 8.0961
612.718286 81.889 8.3985
617.158295 81.887 8.7055
621.630479 81.884 9.0138
626.135069 81.882 9.3232
630.672302 81.878 9.6369
635.242414 81.874 9.9614
639.845642 81.870 10.3080
644.482227 81.868 10.6831
649.152411 81.871 11.0848
653.856437 81.879 11.5004
658.594551 81.895 11.9060
663.366998 81.917 12.2758
668.174029 81.940 12.5953
673.015893 81.961 12.8702
677.892844 81.978 13.1207
682.805135 81.991 13.3667
687.753022 82.000 13.6199
692.736764 82.007 13.8853
697.756620 82.014 14.1624
702.812853 82.020 14.4487
707.905724 82.026 14.7435
713.035501 82.033 15.0493
718.202450 82.040 15.3665
723.406841 82.047 15.6921
728.648945 82.055 16.0228
733.929036 82.065 16.3569
739.247388 82.075 16.6951
744.604279 82.086 17.0375
749.999989 82.097 17.3838
755.434798 82.109 17.7349
760.908990 82.121 18.0886
766.422850 82.134 18.4424
771.976666 82.149 18.7950
777.570727 82.165 19.1470
783.205325 82.182 19.4998
788.880754 82.199 19.8553
794.597309 82.218 20.2141
800.355289 82.237 20.5753
806.154993 82.256 20.9384
811.996725 82.276 21.3035
817.880788 82.296 21.6705
823.807489 82.316 22.0384
829.777138 82.337 22.4057
835.790045 82.360 22.7732
841.846524 82.383 23.1429
847.946891 82.407 23.5151
854.091464 82.432 23.8898
860.280562 82.458 24.2651
866.514510 82.485 24.6376
872.793631 82.514 25.0034
879.118254 82.544 25.3621
885.488707 82.575 25.7190
891.905323 82.607 26.0778
898.368437 82.641 26.4396
904.878385 82.677 26.8029
911.435507 82.713 27.1632
918.040144 82.750 27.5184
924.692641 82.789 27.8701
931.393345 82.828 28.2208
938.142606 82.868 28.5683
944.940774 82.909 28.9069
951.788204 82.951 29.2363
958.685254 82.993 29.5604
965.632282 83.037 29.8809
972.629652 83.083 30.1973
979.677727 83.129 30.5087
986.776876 83.177 30.8152
993.927468 83.225 31.1179
1001.129876 83.276 31.4186
1008.384476 83.328 31.7158
1015.691645 83.381 32.0045
1023.051766 83.434 32.2834
1030.465221 83.488 32.5518
1037.932396 83.542 32.8093
1045.453682 83.597 33.0549
1053.029471 83.652 33.2901
1060.660156 83.708 33.5190
1068.346137 83.765 33.7463
1076.087813 83.823 33.9713
1083.885589 83.880 34.1882
1091.739871 83.938 34.3942
1099.651068 83.995 34.5919
1107.619593 84.052 34.7844
1115.645861 84.109 34.9715
1123.730291 84.166 35.1498
1131.873304 84.223 35.3177
1140.075325 84.280 35.4765
1148.336780 84.338 35.6290
1156.658102 84.396 35.7770
1165.039724 84.453 35.9207
1173.482082 84.510 36.0589
1181.985617 84.566 36.1907
1190.550772 84.622 36.3178
1199.177993 84.678 36.4403
1207.867731 84.733 36.5561
1216.620439 84.789 36.6660
1225.436572 84.845 36.7716
1234.316591 84.901 36.8729
1243.260957 84.958 36.9692
1252.270139 85.017 37.0600
1261.344604 85.077 37.1481
1270.484827 85.139 37.2359
1279.691284 85.201 37.3229
1288.964455 85.262 37.4062
1298.304823 85.324 37.4854
1307.712874 85.384 37.5633
1317.189101 85.444 37.6414
1326.733996 85.503 37.7185
1336.348058 85.563 37.7924
1346.031787 85.622 37.8632
1355.785688 85.681 37.9336
1365.610270 85.740 38.0052
1375.506045 85.799 38.0765
1385.473529 85.858 38.1451
1395.513241 85.917 38.2102
1405.625705 85.976 38.2725
1415.811448 86.035 38.3329
1426.071002 86.095 38.3929
1436.404900 86.155 38.4532
1446.813682 86.216 38.5148
1457.297890 86.277 38.5772
1467.858072 86.337 38.6387
1478.494776 86.398 38.6970
1489.208559 86.458 38.7525
1499.999978 86.519 38.8091
1510.869596 86.580 38.8685
1521.817980 86.641 38.9277
1532.845701 86.702 38.9840
1543.953332 86.764 39.0367
1555.141455 86.826 39.0880
1566.410651 86.890 39.1385
1577.761508 86.953 39.1868
1589.194618 87.015 39.2326
1600.710578 87.076 39.2760
1612.309986 87.136 39.3169
1623.993449 87.194 39.3542
1635.761575 87.252 39.3877
1647.614978 87.311 39.4192
1659.554275 87.370 39.4510
1671.580089 87.429 39.4818
1683.693048 87.490 39.5071
1695.893782 87.552 39.5250
1708.182927 87.614 39.5368
1720.561125 87.677 39.5443
1733.029020 87.741 39.5476
1745.587263 87.806 39.5473
1758.236508 87.870 39.5431
1770.977414 87.935 39.5331
1783.810646 88.001 39.5167
1796.736874 88.067 39.4952
1809.756770 88.133 39.4696
1822.871013 88.201 39.4381
1836.080288 88.269 39.3975
1849.385283 88.337 39.3480
1862.786691 88.406 39.2915
1876.285211 88.476 39.2297
1889.881547 88.547 39.1616
1903.576408 88.618 39.0863
1917.370507 88.689 39.0040
1931.264564 88.761 38.9141
1945.259304 88.834 38.8162
1959.355454 88.907 38.7104
1973.553752 88.982 38.5975
1987.854936 89.058 38.4777
2002.259752 89.136 38.3514
2016.768952 89.217 38.2191
2031.383291 89.300 38.0789
2046.103531 89.386 37.9266
2060.930441 89.474 37.7565
2075.864793 89.564 37.5626
2090.907365 89.655 37.3390
2106.058941 89.747 37.0832
2121.320313 89.839 36.7972
2136.692274 89.930 36.4837
2152.175627 90.019 36.1456
2167.771179 90.107 35.7859
2183.479742 90.194 35.4072
2199.302137 90.279 35.0099
2215.239187 90.363 34.5959
2231.291723 90.445 34.1673
2247.460582 90.526 33.7230
2263.746608 90.606 33.2615
2280.150649 90.685 32.7817
2296.673561 90.763 32.2833
2313.316204 90.839 31.7663
2330.079447 90.915 31.2306
2346.964163 90.989 30.6758
2363.971233 91.061 30.1006
2381.101543 91.132 29.5044
2398.355986 91.201 28.8870
2415.735463 91.268 28.2484
2433.240878 91.332 27.5884
2450.873144 91.393 26.9061
2468.633181 91.452 26.2012
2486.521915 91.507 25.4741
2504.540278 91.559 24.7255
2522.689209 91.606 23.9562
2540.969655 91.650 23.1679
2559.382568 91.690 22.3627
2577.928909 91.726 21.5406
2596.609645 91.757 20.7040
2615.425749 91.784 19.8559
2634.378202 91.807 18.9984
2653.467992 91.824 18.1323
2672.696115 91.836 17.2579
2692.063573 91.843 16.3775
2711.571376 91.845 15.4932
2731.220539 91.842 14.6074
2751.012089 91.834 13.7225
2770.947057 91.821 12.8403
2791.026482 91.802 11.9635
2811.251410 91.779 11.0943
2831.622897 91.751 10.2332
2852.142003 91.718 9.3793
2872.809800 91.681 8.5352
2893.627364 91.639 7.7059
2914.595781 91.593 6.8954
2935.716143 91.542 6.1039
2956.989553 91.488 5.3309
2978.417118 91.429 4.5786
2999.999956 91.367 3.8481
3021.739192 91.302 3.1412
3043.635960 91.234 2.4584
3065.691401 91.163 1.8005
3087.906665 91.089 1.1696
3110.282909 91.012 0.5663
3132.821301 90.933 -0.0088
3155.523016 90.853 -0.5565
3178.389237 90.772 -1.0761
3201.421155 90.689 -1.5662
3224.619973 90.606 -2.0267
3247.986898 90.523 -2.4596
3271.523150 90.440 -2.8673
3295.229956 90.357 -3.2506
3319.108550 90.273 -3.6097
3343.160179 90.189 -3.9449
3367.386096 90.105 -4.2571
3391.787563 90.020 -4.5469
3416.365854 89.935 -4.8126
3441.122250 89.851 -5.0526
3466.058040 89.769 -5.2684
3491.174525 89.688 -5.4638
3516.473015 89.609 -5.6445
3541.954828 89.532 -5.8168
3567.621293 89.455 -5.9877
3593.473747 89.377 -6.1637
3619.513539 89.295 -6.3453
3645.742027 89.205 -6.5242
3672.160576 89.104 -6.6772
3698.770566 88.989 -6.7526
3725.573382 88.861 -6.6605
3752.570422 88.734 -6.3273
3779.763094 88.630 -5.7477
3807.152816 88.577 -5.0101
3834.741015 88.595 -4.4084
3862.529129 88.659 -4.2695
3890.518607 88.719 -4.5260
3918.710909 88.748 -4.8900
3947.107503 88.745 -5.1831
3975.709871 88.719 -5.3743
4004.519504 88.681 -5.5021
4033.537903 88.637 -5.6078
4062.766581 88.592 -5.7090
4092.207063 88.548 -5.8141
4121.860882 88.504 -5.9277
4151.729585 88.461 -6.0529
4181.814729 88.417 -6.1902
4212.117883 88.373 -6.3388
4242.640625 88.326 -6.4963
4273.384548 88.277 -6.6589
4304.351254 88.226 -6.8245
4335.542358 88.172 -6.9901
4366.959485 88.115 -7.1521
4398.604273 88.058 -7.3074
4430.478373 87.998 -7.4565
4462.583446 87.937 -7.6004
4494.921165 87.874 -7.7382
4527.493217 87.809 -7.8705
4560.301299 87.744 -7.9968
4593.347122 87.677 -8.1166
4626.632409 87.608 -8.2292
4660.158894 87.537 -8.3359
4693.928327 87.463 -8.4347
4727.942466 87.387 -8.5223
4762.203086 87.308 -8.5962
4796.711973 87.226 -8.6547
4831.470925 87.141 -8.6975
4866.481755 87.055 -8.7227
4901.746288 86.967 -8.7271
4937.266362 86.877 -8.7087
4973.043830 86.787 -8.6680
5009.080555 86.698 -8.6047
5045.378418 86.609 -8.5172
5081.939310 86.520 -8.4038
5118.765137 86.430 -8.2601
5155.857819 86.339 -8.0829
5193.219290 86.247 -7.8672
5230.851498 86.155 -7.6064
5268.756404 86.065 -7.3008
5306.935985 85.977 -6.9568
5345.392231 85.893 -6.5811
5384.127146 85.812 -6.1780
5423.142751 85.733 -5.7531
5462.441079 85.657 -5.3101
5502.024179 85.581 -4.8535
5541.894114 85.508 -4.3856
5582.052963 85.435 -3.9047
5622.502820 85.362 -3.4103
5663.245793 85.289 -2.8990
5704.284007 85.216 -2.3635
5745.619600 85.142 -1.7944
5787.254728 85.067 -1.1850
5829.191562 84.993 -0.5273
5871.432287 84.919 0.1873
5913.979105 84.850 0.9643
5956.834236 84.785 1.8020
5999.999912 84.728 2.6904
6043.478385 84.680 3.6210
6087.271921 84.640 4.5865
6131.382802 84.609 5.5764
6175.813330 84.587 6.5798
6220.565819 84.574 7.5889
6265.642603 84.569 8.5977
6311.046032 84.571 9.6028
6356.778473 84.580 10.6084
6402.842310 84.595 11.6196
6449.239945 84.616 12.6403
6495.973796 84.643 13.6733
6543.046300 84.677 14.7190
6590.459911 84.719 15.7760
6638.217100 84.769 16.8430
6686.320358 84.830 17.9172
6734.772191 84.901 18.9940
6783.575127 84.983 20.0708
6832.731709 85.077 21.1442
6882.244499 85.183 22.2076
6932.116080 85.301 23.2550
6982.349051 85.432 24.2834
7032.946030 85.576 25.2893
7083.909656 85.735 26.2677
7135.242586 85.909 27.2130
7186.947495 86.099 28.1176
7239.027079 86.308 28.9695
7291.484053 86.535 29.7563
7344.321152 86.783 30.4675
7397.541131 87.052 31.0893
7451.146763 87.343 31.6034
7505.140844 87.657 31.9868
7559.526189 87.996 32.2112
7614.305632 88.361 32.2416
7669.482029 88.753 32.0337
7725.058258 89.170 31.5341
7781.037214 89.610 30.6827
7837.421817 90.067 29.4119
7894.215007 90.531 27.6469
7951.419743 90.988 25.3169
8009.039008 91.417 22.3666
8067.075806 91.799 18.7667
8125.533163 92.109 14.5295
8184.414126 92.324 9.7233
8243.721764 92.424 4.4787
8303.459170 92.392 -1.0139
8363.629458 92.220 -6.5251
8424.235765 91.912 -11.8221
8485.281250 91.482 -16.6991
8546.769096 90.951 -20.9991
8608.702508 90.344 -24.6273
8671.084715 89.689 -27.5479
8733.918969 89.009 -29.7795
8797.208547 88.327 -31.3868
8860.956746 87.657 -32.4528
8925.166891 87.006 -33.0544
8989.842330 86.381 -33.2582
9054.986433 85.785 -33.1205
9120.602598 85.220 -32.6927
9186.694244 84.689 -32.0167
9253.264817 84.191 -31.1248
9320.317788 83.729 -30.0519
9387.856653 83.302 -28.8319
9455.884932 82.910 -27.4956
9524.406173 82.550 -26.0698
9593.423946 82.222 -24.5751
9662.941850 81.926 -23.0312
9732.963510 81.660 -21.4562
9803.492576 81.422 -19.8624
9874.532725 81.211 -18.2572
9946.087659 81.028 -16.6410
10018.161110 80.874 -15.0133
10090.756835 80.753 -13.3939
10163.878619 80.666 -11.8398
10237.530273 80.612 -10.4259
10311.715638 80.582 -9.1920
10386.438580 80.567 -8.1265
10461.702996 80.566 -7.2026
10537.512808 80.579 -6.4106
10613.871970 80.607 -5.7703
10690.784461 80.650 -5.3156
10768.254293 80.704 -5.0798
10846.285502 80.764 -5.0901
10924.882158 80.823 -5.3666
11004.048358 80.873 -5.9241
11083.788228 80.907 -6.7720
11164.105927 80.913 -7.9061
11245.005640 80.882 -9.3020
11326.491587 80.802 -10.9131
11408.568014 80.666 -12.6756
11491.239200 80.466 -14.5095
11574.509457 80.197 -16.3279
11658.383123 79.860 -18.0382
11742.864573 79.458 -19.5428
11827.958211 78.997 -20.7466
11913.668472 78.488 -21.5681
11999.999825 77.947 -21.9677
12086.956770 77.387 -21.9773
12174.543841 76.815 -21.6583
12262.765605 76.224 -20.9868
12351.626659 75.622 -19.8702
12441.131638 75.026 -18.2600
12531.285206 74.460 -16.1556
12622.092064 73.938 -13.5717
12713.556946 73.468 -10.5265
12805.684621 73.052 -7.0342
12898.479890 72.695 -3.1097
12991.947593 72.409 1.2100
13086.092601 72.206 5.8683
13180.919822 72.103 10.7787
13276.434201 72.113 15.8112
13372.640716 72.242 20.7853
13469.544383 72.486 25.4976
13567.150254 72.830 29.7545
13665.463417 73.253 33.3901
13764.488998 73.728 36.3119
13864.232160 74.225 38.5264
13964.698101 74.720 40.1088
14065.892060 75.194 41.1681
14167.819312 75.638 41.8323
14270.485171 76.051 42.2334
14373.894990 76.443 42.4720
14478.054158 76.827 42.6028
14582.968107 77.218 42.6417
14688.642305 77.629 42.5623
14795.082262 78.069 42.2917
14902.293527 78.546 41.7220
15010.281689 79.062 40.7237
15119.052378 79.606 39.1470
15228.611264 80.160 36.8406
15338.964058 80.693 33.6913
15450.116515 81.163 29.6581
15562.074428 81.529 24.8024
15674.843635 81.749 19.3134
15788.430013 81.799 13.5014
15902.839485 81.674 7.7449
16018.078016 81.397 2.4211
16134.151612 81.010 -2.1730
16251.066326 80.564 -5.8777
16368.828251 80.108 -8.6838
16487.443528 79.683 -10.7107
16606.918341 79.315 -12.1443
16727.258917 79.021 -13.1923
16848.471530 78.811 -14.0894
16970.562500 78.686 -15.1201
17093.538192 78.625 -16.6091
17217.405016 78.581 -18.8393
17342.169430 78.477 -21.8931
17467.837939 78.228 -25.4990
17594.417093 77.784 -29.0194
17721.913492 77.167 -31.6442
17850.333783 76.483 -32.7714
17979.684660 75.908 -32.4534
18109.972866 75.590 -31.7198
18241.205195 75.519 -32.1631
18373.388487 75.505 -34.7748
18506.529634 75.312 -39.3220
18640.635577 74.792 -44.7338
18775.713306 73.915 -49.8009
18911.769865 72.742 -53.6274
19048.812345 71.374 -55.7690
19186.847892 69.919 -56.1722
19325.883701 68.466 -55.0447
19465.927021 67.081 -52.7078
19606.985152 65.810 -49.5073
19749.065449 64.710 -45.8595
19892.175318 63.882 -42.3937
20036.322221 63.445 -40.1003
