* Measurement data measured by REW V5.40 beta 105
* Source: Microphone (USB Multi-Channel Audio Device), MICROPHONE (Master Volume), L, volume: 0.490
* Format: 256k Log Swept Sine, 1 sweep at -6.0 dBFS with no timing reference
* Dated: Nov 19, 2025 9:04:13 PM
* REW Settings:
*  C-weighting compensation: Off
*  Target level: 75.0 dB
* Note: ; 
* Measurement: ZVX Pro
* Smoothing: 1/24 octave
* Frequency Step: 96 ppo
* Start Frequency: 20.0 Hz
*
* Freq(Hz) SPL(dB) Phase(degrees)
19.995176 92.623 47.1673
20.140070 92.641 46.6841
20.286013 92.659 46.2025
20.433014 92.676 45.7224
20.581080 92.692 45.2439
20.730219 92.708 44.7667
20.880438 92.724 44.2910
21.031747 92.739 43.8165
21.184151 92.754 43.3433
21.337660 92.769 42.8711
21.492282 92.783 42.3999
21.648024 92.798 41.9296
21.804894 92.812 41.4600
21.962902 92.826 40.9910
22.122054 92.839 40.5224
22.282359 92.853 40.0542
22.443827 92.866 39.5862
22.606464 92.879 39.1182
22.770280 92.891 38.6501
22.935282 92.903 38.1820
23.101481 92.915 37.7136
23.268884 92.926 37.2450
23.437500 92.936 36.7761
23.607337 92.946 36.3070
23.778406 92.956 35.8378
23.950714 92.965 35.3684
24.124271 92.974 34.8990
24.299085 92.982 34.4299
24.475166 92.989 33.9612
24.652524 92.996 33.4930
24.831166 93.002 33.0258
25.011103 93.008 32.5597
25.192344 93.013 32.0949
25.374898 93.017 31.6319
25.558775 93.020 31.1709
25.743984 93.023 30.7120
25.930536 93.025 30.2557
26.118439 93.027 29.8020
26.307704 93.029 29.3512
26.498340 93.030 28.9034
26.690358 93.031 28.4586
26.883768 93.032 28.0169
27.078578 93.032 27.5782
27.274801 93.031 27.1426
27.472445 93.030 26.7097
27.671522 93.029 26.2795
27.872041 93.028 25.8518
28.074014 93.027 25.4264
28.277450 93.025 25.0029
28.482360 93.024 24.5811
28.688755 93.022 24.1606
28.896645 93.021 23.7412
29.106042 93.019 23.3226
29.316956 93.018 22.9045
29.529399 93.016 22.4867
29.743381 93.014 22.0688
29.958914 93.012 21.6506
30.176009 93.010 21.2321
30.394677 93.007 20.8129
30.614929 93.005 20.3929
30.836777 93.001 19.9724
31.060233 92.998 19.5513
31.285309 92.993 19.1296
31.512015 92.989 18.7075
31.740364 92.984 18.2854
31.970368 92.978 17.8635
32.202038 92.972 17.4421
32.435387 92.966 17.0216
32.670428 92.958 16.6025
32.907171 92.950 16.1850
33.145630 92.942 15.7695
33.385817 92.932 15.3564
33.627744 92.923 14.9458
33.871425 92.913 14.5380
34.116871 92.903 14.1331
34.364096 92.892 13.7312
34.613112 92.880 13.3324
34.863933 92.868 12.9366
35.116572 92.856 12.5439
35.371041 92.843 12.1544
35.627354 92.831 11.7678
35.885524 92.818 11.3842
36.145566 92.805 11.0037
36.407491 92.792 10.6260
36.671315 92.778 10.2513
36.937051 92.765 9.8793
37.204712 92.751 9.5098
37.474312 92.737 9.1427
37.745867 92.724 8.7778
38.019389 92.710 8.4148
38.294893 92.697 8.0534
38.572393 92.683 7.6934
38.851905 92.670 7.3344
39.133442 92.656 6.9762
39.417019 92.643 6.6187
39.702651 92.629 6.2617
39.990353 92.615 5.9052
40.280139 92.601 5.5488
40.572026 92.587 5.1929
40.866027 92.572 4.8370
41.162159 92.557 4.4814
41.460437 92.542 4.1261
41.760877 92.526 3.7708
42.063493 92.511 3.4156
42.368303 92.495 3.0605
42.675321 92.479 2.7056
42.984564 92.463 2.3508
43.296048 92.446 1.9964
43.609789 92.429 1.6425
43.925803 92.411 1.2893
44.244108 92.392 0.9371
44.564719 92.374 0.5863
44.887653 92.354 0.2372
45.212928 92.334 -0.1097
45.540559 92.314 -0.4542
45.870565 92.293 -0.7957
46.202962 92.271 -1.1339
46.537767 92.249 -1.4685
46.874999 92.227 -1.7994
47.214675 92.204 -2.1266
47.556812 92.181 -2.4500
47.901428 92.158 -2.7695
48.248542 92.134 -3.0853
48.598170 92.110 -3.3976
48.950333 92.086 -3.7063
49.305047 92.061 -4.0115
49.662332 92.036 -4.3134
50.022206 92.012 -4.6119
50.384687 91.987 -4.9072
50.749795 91.962 -5.1993
51.117549 91.938 -5.4883
51.487968 91.913 -5.7743
51.861071 91.889 -6.0574
52.236878 91.865 -6.3377
52.615408 91.841 -6.6158
52.996681 91.818 -6.8921
53.380716 91.795 -7.1676
53.767535 91.773 -7.4430
54.157157 91.751 -7.7195
54.549602 91.729 -7.9979
54.944891 91.707 -8.2787
55.343044 91.683 -8.5618
55.744083 91.660 -8.8469
56.148027 91.637 -9.1332
56.554899 91.614 -9.4197
56.964719 91.590 -9.7052
57.377509 91.567 -9.9893
57.793290 91.542 -10.2714
58.212084 91.517 -10.5515
58.633913 91.491 -10.8297
59.058798 91.465 -11.1060
59.486763 91.437 -11.3796
59.917828 91.409 -11.6495
60.352018 91.380 -11.9146
60.789353 91.350 -12.1737
61.229858 91.320 -12.4264
61.673555 91.288 -12.6732
62.120467 91.257 -12.9156
62.570617 91.225 -13.1556
63.024030 91.196 -13.3944
63.480728 91.168 -13.6326
63.940735 91.140 -13.8695
64.404076 91.113 -14.1030
64.870775 91.084 -14.3310
65.340855 91.054 -14.5522
65.814342 91.023 -14.7670
66.291260 90.992 -14.9777
66.771634 90.962 -15.1881
67.255488 90.933 -15.4021
67.742849 90.904 -15.6225
68.233742 90.875 -15.8494
68.728192 90.846 -16.0802
69.226225 90.814 -16.3099
69.727866 90.781 -16.5328
70.233143 90.747 -16.7433
70.742082 90.714 -16.9382
71.254708 90.681 -17.1180
71.771049 90.651 -17.2864
72.291131 90.623 -17.4506
72.814983 90.598 -17.6193
73.342630 90.573 -17.8009
73.874101 90.549 -18.0007
74.409423 90.523 -18.2200
74.948625 90.495 -18.4547
75.491733 90.463 -18.6972
76.038777 90.429 -18.9379
76.589786 90.391 -19.1672
77.144787 90.351 -19.3782
77.703810 90.310 -19.5677
78.266884 90.269 -19.7368
78.834038 90.230 -19.8897
79.405302 90.192 -20.0322
79.980705 90.158 -20.1700
80.560278 90.126 -20.3079
81.144051 90.095 -20.4488
81.732055 90.066 -20.5942
82.324319 90.038 -20.7446
82.920875 90.009 -20.8998
83.521754 89.979 -21.0591
84.126987 89.949 -21.2214
84.736605 89.917 -21.3852
85.350642 89.884 -21.5486
85.969128 89.851 -21.7097
86.592096 89.816 -21.8661
87.219578 89.780 -22.0155
87.851607 89.744 -22.1553
88.488216 89.708 -22.2831
89.129438 89.671 -22.3970
89.775306 89.633 -22.4951
90.425855 89.594 -22.5759
91.081118 89.555 -22.6382
91.741129 89.518 -22.6812
92.405924 89.484 -22.7073
93.075535 89.455 -22.7247
93.749999 89.430 -22.7485
94.429350 89.410 -22.7984
95.113624 89.391 -22.8907
95.802856 89.369 -23.0292
96.497083 89.341 -23.2006
97.196341 89.305 -23.3804
97.900666 89.264 -23.5438
98.610094 89.218 -23.6755
99.324664 89.172 -23.7722
100.044411 89.128 -23.8394
100.769374 89.086 -23.8864
101.499591 89.048 -23.9237
102.235098 89.012 -23.9607
102.975936 88.980 -24.0037
103.722142 88.949 -24.0555
104.473756 88.918 -24.1157
105.230815 88.888 -24.1828
105.993361 88.859 -24.2555
106.761433 88.829 -24.3331
107.535070 88.799 -24.4153
108.314314 88.770 -24.5013
109.099204 88.740 -24.5903
109.889782 88.711 -24.6814
110.686088 88.682 -24.7746
111.488165 88.653 -24.8704
112.296055 88.624 -24.9688
113.109798 88.593 -25.0687
113.929438 88.562 -25.1688
114.755018 88.529 -25.2675
115.586580 88.495 -25.3634
116.424168 88.459 -25.4557
117.267826 88.423 -25.5433
118.117597 88.385 -25.6251
118.973525 88.347 -25.6985
119.835657 88.308 -25.7600
120.704035 88.270 -25.8068
121.578706 88.231 -25.8388
122.459716 88.194 -25.8604
123.347109 88.158 -25.8779
124.240933 88.123 -25.8975
125.141234 88.089 -25.9227
126.048059 88.056 -25.9548
126.961456 88.023 -25.9934
127.881471 87.990 -26.0371
128.808153 87.956 -26.0839
129.741550 87.920 -26.1309
130.681710 87.884 -26.1749
131.628684 87.846 -26.2134
132.582520 87.808 -26.2447
133.543267 87.769 -26.2677
134.510977 87.730 -26.2825
135.485699 87.691 -26.2897
136.467484 87.653 -26.2900
137.456384 87.614 -26.2839
138.452449 87.576 -26.2721
139.455733 87.538 -26.2542
140.466286 87.500 -26.2283
141.484163 87.462 -26.1903
142.509416 87.424 -26.1356
143.542098 87.389 -26.0635
144.582263 87.356 -25.9797
145.629965 87.326 -25.8936
146.685260 87.298 -25.8112
147.748202 87.272 -25.7310
148.818846 87.247 -25.6473
149.897249 87.224 -25.5585
150.983466 87.204 -25.4684
152.077555 87.187 -25.3839
153.179572 87.172 -25.3120
154.289574 87.160 -25.2578
155.407620 87.148 -25.2236
156.533767 87.136 -25.2094
157.668076 87.124 -25.2125
158.810603 87.111 -25.2297
159.961411 87.099 -25.2572
161.120557 87.086 -25.2922
162.288103 87.074 -25.3333
163.464109 87.063 -25.3799
164.648638 87.053 -25.4316
165.841750 87.045 -25.4866
167.043507 87.037 -25.5414
168.253973 87.027 -25.5923
169.473211 87.011 -25.6370
170.701284 86.986 -25.6754
171.938256 86.953 -25.7080
173.184191 86.910 -25.7345
174.439155 86.859 -25.7533
175.703213 86.798 -25.7628
176.976431 86.730 -25.7633
178.258875 86.659 -25.7565
179.550613 86.589 -25.7440
180.851710 86.523 -25.7269
182.162236 86.464 -25.7048
183.482259 86.411 -25.6770
184.811847 86.364 -25.6431
186.151070 86.325 -25.6039
187.499997 86.291 -25.5605
188.858700 86.261 -25.5135
190.227248 86.233 -25.4630
191.605713 86.206 -25.4089
192.994167 86.180 -25.3514
194.392682 86.155 -25.2906
195.801331 86.130 -25.2267
197.220189 86.106 -25.1602
198.649327 86.082 -25.0913
200.088822 86.057 -25.0205
201.538748 86.032 -24.9473
202.999181 86.005 -24.8705
204.470197 85.978 -24.7896
205.951872 85.949 -24.7043
207.444284 85.921 -24.6154
208.947511 85.892 -24.5234
210.461631 85.862 -24.4298
211.986723 85.833 -24.3353
213.522866 85.803 -24.2398
215.070141 85.773 -24.1426
216.628627 85.743 -24.0442
218.198408 85.713 -23.9462
219.779563 85.683 -23.8495
221.372177 85.653 -23.7535
222.976331 85.622 -23.6552
224.592109 85.591 -23.5520
226.219596 85.561 -23.4448
227.858877 85.532 -23.3367
229.510036 85.502 -23.2290
231.173160 85.473 -23.1207
232.848336 85.444 -23.0106
234.535651 85.415 -22.8992
236.235193 85.386 -22.7869
237.947051 85.357 -22.6735
239.671313 85.327 -22.5571
241.408071 85.298 -22.4349
243.157413 85.268 -22.3065
244.919432 85.238 -22.1751
246.694219 85.209 -22.0447
248.481867 85.180 -21.9156
250.282469 85.150 -21.7856
252.096119 85.119 -21.6533
253.922911 85.089 -21.5168
255.762941 85.059 -21.3747
257.616305 85.029 -21.2272
259.483099 85.000 -21.0765
261.363421 84.971 -20.9245
263.257368 84.944 -20.7736
265.165039 84.916 -20.6251
267.086534 84.889 -20.4784
269.021953 84.861 -20.3315
270.971397 84.834 -20.1835
272.934968 84.807 -20.0341
274.912767 84.781 -19.8831
276.904898 84.755 -19.7312
278.911465 84.731 -19.5795
280.932573 84.706 -19.4270
282.968326 84.683 -19.2729
285.018831 84.659 -19.1188
287.084195 84.636 -18.9646
289.164526 84.613 -18.8097
291.259931 84.589 -18.6532
293.370520 84.565 -18.4938
295.496404 84.541 -18.3305
297.637693 84.516 -18.1644
299.794498 84.492 -17.9963
301.966933 84.467 -17.8257
304.155110 84.442 -17.6516
306.359143 84.417 -17.4756
308.579148 84.392 -17.2985
310.815239 84.368 -17.1201
313.067535 84.343 -16.9404
315.336151 84.319 -16.7584
317.621207 84.295 -16.5726
319.922821 84.270 -16.3838
322.241114 84.246 -16.1942
324.576206 84.223 -16.0050
326.928219 84.200 -15.8163
329.297275 84.177 -15.6279
331.683499 84.154 -15.4377
334.087014 84.131 -15.2439
336.507947 84.109 -15.0477
338.946422 84.088 -14.8518
341.402567 84.067 -14.6584
343.876511 84.047 -14.4683
346.368382 84.026 -14.2797
348.878310 84.006 -14.0892
351.406426 83.986 -13.8936
353.952862 83.966 -13.6929
356.517750 83.947 -13.4883
359.101225 83.928 -13.2812
361.703421 83.910 -13.0737
364.324473 83.892 -12.8667
366.964518 83.874 -12.6594
369.623694 83.856 -12.4506
372.302140 83.838 -12.2396
374.999995 83.821 -12.0272
377.717399 83.803 -11.8137
380.454495 83.786 -11.5996
383.211425 83.769 -11.3852
385.988333 83.752 -11.1713
388.785364 83.735 -10.9581
391.602663 83.718 -10.7445
394.440377 83.701 -10.5286
397.298655 83.684 -10.3091
400.177644 83.667 -10.0859
403.077497 83.650 -9.8593
405.998362 83.632 -9.6310
408.940394 83.615 -9.4007
411.903744 83.597 -9.1674
414.888569 83.579 -8.9323
417.895022 83.562 -8.6963
420.923262 83.545 -8.4586
423.973445 83.528 -8.2193
427.045732 83.512 -7.9792
430.140281 83.496 -7.7385
433.257255 83.481 -7.4971
436.396816 83.466 -7.2555
439.559127 83.452 -7.0129
442.744354 83.438 -6.7698
445.952662 83.425 -6.5275
449.184218 83.412 -6.2847
452.439192 83.400 -6.0395
455.717753 83.387 -5.7916
459.020072 83.376 -5.5414
462.346321 83.365 -5.2896
465.696673 83.355 -5.0376
469.071303 83.345 -4.7873
472.470387 83.334 -4.5377
475.894102 83.323 -4.2858
479.342627 83.313 -4.0295
482.816141 83.302 -3.7693
486.314826 83.291 -3.5070
489.838864 83.281 -3.2422
493.388438 83.271 -2.9747
496.963734 83.261 -2.7074
500.564938 83.252 -2.4428
504.192238 83.241 -2.1787
507.845823 83.231 -1.9118
511.525883 83.220 -1.6414
515.232610 83.210 -1.3678
518.966198 83.200 -1.0927
522.726841 83.190 -0.8166
526.514735 83.181 -0.5383
530.330078 83.171 -0.2573
534.173068 83.162 0.0250
538.043907 83.153 0.3093
541.942795 83.144 0.5958
545.869936 83.135 0.8842
549.825534 83.127 1.1747
553.809797 83.119 1.4679
557.822931 83.112 1.7596
561.865146 83.106 2.0479
565.936652 83.101 2.3356
570.037662 83.096 2.6244
574.168390 83.093 2.9139
578.329051 83.090 3.2054
582.519862 83.088 3.4982
586.741041 83.086 3.7910
590.992808 83.085 4.0862
595.275386 83.084 4.3817
599.588997 83.084 4.6735
603.933866 83.084 4.9607
608.310219 83.084 5.2437
612.718286 83.084 5.5222
617.158295 83.083 5.7952
621.630479 83.081 6.0599
626.135069 83.076 6.3174
630.672302 83.067 6.5764
635.242414 83.055 6.8512
639.845642 83.039 7.1543
644.482227 83.022 7.4940
649.152411 83.006 7.8717
653.856437 82.994 8.2788
658.594551 82.988 8.7013
663.366998 82.986 9.1265
668.174029 82.988 9.5446
673.015893 82.993 9.9512
677.892844 82.999 10.3466
682.805135 83.006 10.7324
687.753022 83.013 11.1121
692.736764 83.020 11.4882
697.756620 83.027 11.8621
702.812853 83.034 12.2362
707.905724 83.041 12.6132
713.035501 83.048 12.9937
718.202450 83.055 13.3759
723.406841 83.064 13.7581
728.648945 83.073 14.1396
733.929036 83.084 14.5200
739.247388 83.095 14.9011
744.604279 83.108 15.2836
749.999989 83.121 15.6658
755.434798 83.135 16.0502
760.908990 83.149 16.4383
766.422850 83.163 16.8273
771.976666 83.178 17.2159
777.570727 83.194 17.6055
783.205325 83.211 17.9975
788.880754 83.229 18.3940
794.597309 83.246 18.7945
800.355289 83.265 19.1956
806.154993 83.284 19.5955
811.996725 83.304 19.9976
817.880788 83.325 20.4042
823.807489 83.347 20.8129
829.777138 83.369 21.2196
835.790045 83.393 21.6234
841.846524 83.417 22.0278
847.946891 83.441 22.4357
854.091464 83.467 22.8452
860.280562 83.495 23.2536
866.514510 83.524 23.6597
872.793631 83.553 24.0625
879.118254 83.584 24.4628
885.488707 83.616 24.8630
891.905323 83.650 25.2634
898.368437 83.685 25.6627
904.878385 83.720 26.0588
911.435507 83.757 26.4498
918.040144 83.795 26.8364
924.692641 83.834 27.2203
931.393345 83.874 27.6021
938.142606 83.915 27.9830
944.940774 83.957 28.3634
951.788204 84.000 28.7393
958.685254 84.044 29.1077
965.632282 84.088 29.4670
972.629652 84.133 29.8166
979.677727 84.179 30.1598
986.776876 84.227 30.4994
993.927468 84.275 30.8333
1001.129876 84.324 31.1587
1008.384476 84.373 31.4786
1015.691645 84.422 31.7951
1023.051766 84.472 32.1073
1030.465221 84.523 32.4131
1037.932396 84.575 32.7081
1045.453682 84.628 32.9920
1053.029471 84.682 33.2690
1060.660156 84.736 33.5398
1068.346137 84.792 33.8008
1076.087813 84.848 34.0504
1083.885589 84.905 34.2903
1091.739871 84.964 34.5240
1099.651068 85.022 34.7538
1107.619593 85.081 34.9791
1115.645861 85.139 35.1973
1123.730291 85.197 35.4070
1131.873304 85.255 35.6086
1140.075325 85.312 35.8033
1148.336780 85.369 35.9914
1156.658102 85.426 36.1732
1165.039724 85.483 36.3481
1173.482082 85.540 36.5164
1181.985617 85.598 36.6785
1190.550772 85.655 36.8349
1199.177993 85.712 36.9873
1207.867731 85.770 37.1371
1216.620439 85.828 37.2836
1225.436572 85.886 37.4242
1234.316591 85.944 37.5582
1243.260957 86.002 37.6890
1252.270139 86.059 37.8191
1261.344604 86.117 37.9467
1270.484827 86.175 38.0692
1279.691284 86.237 38.1881
1288.964455 86.302 38.3045
1298.304823 86.370 38.4188
1307.712874 86.439 38.5318
1317.189101 86.507 38.6434
1326.733996 86.575 38.7537
1336.348058 86.641 38.8647
1346.031787 86.707 38.9766
1355.785688 86.770 39.0878
1365.610270 86.832 39.1972
1375.506045 86.892 39.3048
1385.473529 86.950 39.4127
1395.513241 87.008 39.5208
1405.625705 87.065 39.6275
1415.811448 87.122 39.7361
1426.071002 87.178 39.8482
1436.404900 87.234 39.9630
1446.813682 87.290 40.0806
1457.297890 87.345 40.1999
1467.858072 87.401 40.3181
1478.494776 87.456 40.4354
1489.208559 87.512 40.5547
1499.999978 87.568 40.6773
1510.869596 87.624 40.8044
1521.817980 87.681 40.9348
1532.845701 87.739 41.0680
1543.953332 87.798 41.2067
1555.141455 87.858 41.3521
1566.410651 87.920 41.5036
1577.761508 87.985 41.6593
1589.194618 88.053 41.8144
1600.710578 88.123 41.9622
1612.309986 88.196 42.0970
1623.993449 88.270 42.2146
1635.761575 88.346 42.3099
1647.614978 88.421 42.3822
1659.554275 88.496 42.4352
1671.580089 88.570 42.4720
1683.693048 88.641 42.4966
1695.893782 88.712 42.5123
1708.182927 88.781 42.5215
1720.561125 88.849 42.5281
1733.029020 88.916 42.5357
1745.587263 88.982 42.5431
1758.236508 89.048 42.5486
1770.977414 89.114 42.5522
1783.810646 89.179 42.5533
1796.736874 89.245 42.5522
1809.756770 89.312 42.5481
1822.871013 89.379 42.5383
1836.080288 89.447 42.5224
1849.385283 89.517 42.5001
1862.786691 89.588 42.4700
1876.285211 89.660 42.4320
1889.881547 89.734 42.3845
1903.576408 89.809 42.3252
1917.370507 89.886 42.2551
1931.264564 89.964 42.1744
1945.259304 90.043 42.0826
1959.355454 90.124 41.9803
1973.553752 90.205 41.8672
1987.854936 90.287 41.7427
2002.259752 90.370 41.6050
2016.768952 90.453 41.4516
2031.383291 90.537 41.2824
2046.103531 90.622 41.0992
2060.930441 90.707 40.9015
2075.864793 90.792 40.6895
2090.907365 90.878 40.4628
2106.058941 90.963 40.2184
2121.320313 91.049 39.9571
2136.692274 91.135 39.6797
2152.175627 91.220 39.3845
2167.771179 91.306 39.0703
2183.479742 91.390 38.7374
2199.302137 91.475 38.3861
2215.239187 91.558 38.0173
2231.291723 91.640 37.6294
2247.460582 91.721 37.2199
2263.746608 91.800 36.7896
2280.150649 91.877 36.3391
2296.673561 91.953 35.8696
2313.316204 92.027 35.3808
2330.079447 92.099 34.8708
2346.964163 92.169 34.3411
2363.971233 92.235 33.7932
2381.101543 92.300 33.2269
2398.355986 92.362 32.6414
2415.735463 92.422 32.0354
2433.240878 92.479 31.4099
2450.873144 92.533 30.7680
2468.633181 92.583 30.1120
2486.521915 92.631 29.4419
2504.540278 92.675 28.7570
2522.689209 92.716 28.0597
2540.969655 92.753 27.3533
2559.382568 92.786 26.6372
2577.928909 92.816 25.9119
2596.609645 92.842 25.1812
2615.425749 92.863 24.4496
2634.378202 92.881 23.7212
2653.467992 92.895 22.9956
2672.696115 92.905 22.2701
2692.063573 92.910 21.5477
2711.571376 92.911 20.8352
2731.220539 92.909 20.1343
2751.012089 92.903 19.4432
2770.947057 92.893 18.7617
2791.026482 92.879 18.0923
2811.251410 92.861 17.4406
2831.622897 92.840 16.8077
2852.142003 92.815 16.1933
2872.809800 92.788 15.6019
2893.627364 92.758 15.0377
2914.595781 92.726 14.5009
2935.716143 92.695 13.9928
2956.989553 92.666 13.5106
2978.417118 92.640 13.0431
2999.999956 92.618 12.5757
3021.739192 92.599 12.0908
3043.635960 92.581 11.5749
3065.691401 92.563 11.0217
3087.906665 92.540 10.4285
3110.282909 92.512 9.8037
3132.821301 92.475 9.1646
3155.523016 92.431 8.5244
3178.389237 92.378 7.8948
3201.421155 92.318 7.2878
3224.619973 92.253 6.7136
3247.986898 92.184 6.1836
3271.523150 92.114 5.7035
3295.229956 92.044 5.2716
3319.108550 91.976 4.8878
3343.160179 91.914 4.5503
3367.386096 91.861 4.2532
3391.787563 91.817 3.9907
3416.365854 91.783 3.7479
3441.122250 91.758 3.5071
3466.058040 91.740 3.2587
3491.174525 91.728 2.9962
3516.473015 91.718 2.7137
3541.954828 91.706 2.4094
3567.621293 91.690 2.0839
3593.473747 91.667 1.7457
3619.513539 91.637 1.4047
3645.742027 91.600 1.0653
3672.160576 91.556 0.7326
3698.770566 91.506 0.4124
3725.573382 91.452 0.1051
3752.570422 91.395 -0.1918
3779.763094 91.336 -0.4832
3807.152816 91.276 -0.7747
3834.741015 91.216 -1.0699
3862.529129 91.156 -1.3732
3890.518607 91.095 -1.6902
3918.710909 91.032 -2.0239
3947.107503 90.967 -2.3746
3975.709871 90.896 -2.7380
4004.519504 90.819 -3.1033
4033.537903 90.735 -3.4602
4062.766581 90.644 -3.8000
4092.207063 90.546 -4.1086
4121.860882 90.442 -4.3688
4151.729585 90.334 -4.5692
4181.814729 90.223 -4.7067
4212.117883 90.112 -4.7795
4242.640625 90.003 -4.7854
4273.384548 89.899 -4.7295
4304.351254 89.802 -4.6274
4335.542358 89.713 -4.4989
4366.959485 89.631 -4.3586
4398.604273 89.557 -4.2205
4430.478373 89.488 -4.0980
4462.583446 89.423 -3.9984
4494.921165 89.361 -3.9225
4527.493217 89.299 -3.8704
4560.301299 89.237 -3.8405
4593.347122 89.173 -3.8250
4626.632409 89.108 -3.8130
4660.158894 89.040 -3.7970
4693.928327 88.970 -3.7707
4727.942466 88.898 -3.7233
4762.203086 88.826 -3.6456
4796.711973 88.755 -3.5396
4831.470925 88.684 -3.4086
4866.481755 88.616 -3.2519
4901.746288 88.551 -3.0724
4937.266362 88.487 -2.8807
4973.043830 88.427 -2.6846
5009.080555 88.368 -2.4833
5045.378418 88.312 -2.2764
5081.939310 88.257 -2.0667
5118.765137 88.205 -1.8533
5155.857819 88.155 -1.6299
5193.219290 88.106 -1.3925
5230.851498 88.059 -1.1401
5268.756404 88.013 -0.8685
5306.935985 87.969 -0.5689
5345.392231 87.927 -0.2363
5384.127146 87.887 0.1279
5423.142751 87.848 0.5223
5462.441079 87.807 0.9471
5502.024179 87.765 1.4049
5541.894114 87.720 1.8951
5582.052963 87.673 2.4144
5622.502820 87.621 2.9613
5663.245793 87.566 3.5349
5704.284007 87.508 4.1311
5745.619600 87.450 4.7468
5787.254728 87.390 5.3802
5829.191562 87.330 6.0320
5871.432287 87.267 6.7067
5913.979105 87.206 7.4062
5956.834236 87.146 8.1263
5999.999912 87.089 8.8671
6043.478385 87.036 9.6317
6087.271921 86.986 10.4208
6131.382802 86.942 11.2347
6175.813330 86.903 12.0703
6220.565819 86.870 12.9249
6265.642603 86.842 13.8015
6311.046032 86.821 14.7012
6356.778473 86.806 15.6210
6402.842310 86.798 16.5601
6449.239945 86.799 17.5173
6495.973796 86.807 18.4921
6543.046300 86.823 19.4843
6590.459911 86.849 20.4866
6638.217100 86.883 21.4940
6686.320358 86.928 22.5059
6734.772191 86.982 23.5186
6783.575127 87.048 24.5286
6832.731709 87.126 25.5332
6882.244499 87.216 26.5260
6932.116080 87.319 27.5020
6982.349051 87.436 28.4584
7032.946030 87.568 29.3871
7083.909656 87.716 30.2772
7135.242586 87.881 31.1198
7186.947495 88.064 31.9078
7239.027079 88.267 32.6319
7291.484053 88.490 33.2721
7344.321152 88.737 33.8065
7397.541131 89.007 34.2206
7451.146763 89.302 34.4970
7505.140844 89.624 34.6094
7559.526189 89.973 34.5293
7614.305632 90.346 34.2242
7669.482029 90.737 33.6573
7725.058258 91.142 32.7882
7781.037214 91.555 31.5718
7837.421817 91.968 29.9634
7894.215007 92.368 27.9229
7951.419743 92.738 25.4182
8009.039008 93.059 22.4382
8067.075806 93.315 18.9976
8125.533163 93.493 15.1417
8184.414126 93.581 10.9559
8243.721764 93.570 6.5593
8303.459170 93.454 2.0922
8363.629458 93.233 -2.2949
8424.235765 92.916 -6.4569
8485.281250 92.514 -10.2683
8546.769096 92.043 -13.6309
8608.702508 91.519 -16.4896
8671.084715 90.959 -18.8259
8733.918969 90.378 -20.6416
8797.208547 89.789 -21.9622
8860.956746 89.203 -22.8281
8925.166891 88.627 -23.2836
8989.842330 88.066 -23.3768
9054.986433 87.525 -23.1527
9120.602598 87.006 -22.6477
9186.694244 86.512 -21.8970
9253.264817 86.045 -20.9298
9320.317788 85.608 -19.7744
9387.856653 85.202 -18.4634
9455.884932 84.828 -17.0195
9524.406173 84.487 -15.4575
9593.423946 84.178 -13.7965
9662.941850 83.900 -12.0589
9732.963510 83.654 -10.2616
9803.492576 83.437 -8.4206
9874.532725 83.247 -6.5557
9946.087659 83.085 -4.6855
10018.161110 82.948 -2.8186
10090.756835 82.837 -0.9500
10163.878619 82.753 0.9145
10237.530273 82.695 2.7621
10311.715638 82.666 4.5814
10386.438580 82.665 6.3523
10461.702996 82.693 8.0516
10537.512808 82.748 9.6654
10613.871970 82.830 11.1840
10690.784461 82.940 12.5967
10768.254293 83.079 13.8882
10846.285502 83.245 15.0284
10924.882158 83.439 15.9792
11004.048358 83.657 16.7039
11083.788228 83.897 17.1585
11164.105927 84.155 17.2971
11245.005640 84.422 17.0815
11326.491587 84.691 16.4767
11408.568014 84.950 15.4581
11491.239200 85.185 14.0165
11574.509457 85.382 12.1609
11658.383123 85.525 9.9351
11742.864573 85.602 7.4143
11827.958211 85.605 4.6901
11913.668472 85.531 1.8508
11999.999825 85.375 -1.0216
12086.956770 85.133 -3.8141
12174.543841 84.807 -6.3811
12262.765605 84.406 -8.5971
12351.626659 83.947 -10.3863
12441.131638 83.447 -11.7139
12531.285206 82.920 -12.5757
12622.092064 82.377 -12.9897
12713.556946 81.831 -12.9845
12805.684621 81.289 -12.6005
12898.479890 80.757 -11.8860
12991.947593 80.241 -10.8835
13086.092601 79.744 -9.6384
13180.919822 79.265 -8.1976
13276.434201 78.803 -6.5929
13372.640716 78.363 -4.8541
13469.544383 77.955 -3.0141
13567.150254 77.598 -1.1036
13665.463417 77.313 0.8420
13764.488998 77.139 2.7856
13864.232160 77.146 4.6920
13964.698101 77.438 6.5283
14065.892060 78.068 8.2598
14167.819312 78.950 9.8480
14270.485171 79.921 11.2510
14373.894990 80.830 12.4149
14478.054158 81.564 13.2672
14582.968107 82.080 13.7208
14688.642305 82.419 13.6913
14795.082262 82.653 13.1088
14902.293527 82.827 11.9182
15010.281689 82.954 10.0910
15119.052378 83.026 7.6371
15228.611264 83.031 4.6193
15338.964058 82.967 1.1644
15450.116515 82.842 -2.5560
15562.074428 82.672 -6.3434
15674.843635 82.468 -9.9995
15788.430013 82.237 -13.3566
15902.839485 82.001 -16.2970
16018.078016 81.797 -18.7685
16134.151612 81.658 -20.7957
16251.066326 81.593 -22.4728
16368.828251 81.589 -23.9544
16487.443528 81.626 -25.4515
16606.918341 81.690 -27.2318
16727.258917 81.784 -29.6096
16848.471530 81.901 -32.9133
16970.562500 82.008 -37.4186
17093.538192 82.036 -43.2583
17217.405016 81.897 -50.3374
17342.169430 81.506 -58.2826
17467.837939 80.808 -66.4871
17594.417093 79.788 -74.2488
17721.913492 78.474 -80.9410
17850.333783 76.924 -86.1440
17979.684660 75.210 -89.6877
18109.972866 73.401 -91.6045
18241.205195 71.543 -92.0349
18373.388487 69.655 -91.1452
18506.529634 67.736 -89.0488
18640.635577 65.769 -85.6278
18775.713306 63.744 -80.2083
18911.769865 61.737 -70.7219
19048.812345 60.131 -52.2697
19186.847892 59.707 -23.7885
19325.883701 60.558 -3.5282
19465.927021 61.683 2.0638
19606.985152 62.350 0.3347
19749.065449 62.445 -3.2958
19892.175318 62.203 -6.1863
20036.322221 61.976 -7.5397
