* Measurement data measured by REW V5.40 beta 105
* Source: Microphone (USB Multi-Channel Audio Device), MICROPHONE (Master Volume), L, volume: 0.490
* Format: 256k Log Swept Sine, 1 sweep at -6.0 dBFS with no timing reference
* Dated: Nov 19, 2025 9:21:09 PM
* REW Settings:
*  C-weighting compensation: Off
*  Target level: 75.0 dB
* Note: ; 
* Measurement: ZAX L
* Smoothing: 1/24 octave
* Frequency Step: 96 ppo
* Start Frequency: 20.0 Hz
*
* Freq(Hz) SPL(dB) Phase(degrees)
19.995176 90.911 62.5718
20.140070 90.941 62.0984
20.286013 90.972 61.6262
20.433014 91.001 61.1552
20.581080 91.031 60.6854
20.730219 91.059 60.2169
20.880438 91.087 59.7498
21.031747 91.115 59.2840
21.184151 91.142 58.8195
21.337660 91.169 58.3566
21.492282 91.196 57.8949
21.648024 91.222 57.4347
21.804894 91.248 56.9757
21.962902 91.274 56.5180
22.122054 91.300 56.0614
22.282359 91.325 55.6060
22.443827 91.350 55.1515
22.606464 91.374 54.6978
22.770280 91.398 54.2450
22.935282 91.422 53.7928
23.101481 91.445 53.3413
23.268884 91.468 52.8903
23.437500 91.491 52.4398
23.607337 91.513 51.9899
23.778406 91.535 51.5404
23.950714 91.556 51.0916
24.124271 91.577 50.6434
24.299085 91.597 50.1960
24.475166 91.617 49.7495
24.652524 91.637 49.3039
24.831166 91.656 48.8596
25.011103 91.674 48.4165
25.192344 91.692 47.9749
25.374898 91.709 47.5349
25.558775 91.726 47.0965
25.743984 91.743 46.6599
25.930536 91.759 46.2252
26.118439 91.775 45.7923
26.307704 91.791 45.3613
26.498340 91.806 44.9323
26.690358 91.821 44.5050
26.883768 91.836 44.0796
27.078578 91.850 43.6559
27.274801 91.864 43.2339
27.472445 91.877 42.8136
27.671522 91.890 42.3947
27.872041 91.903 41.9774
28.074014 91.915 41.5614
28.277450 91.927 41.1468
28.482360 91.939 40.7336
28.688755 91.951 40.3216
28.896645 91.962 39.9110
29.106042 91.973 39.5017
29.316956 91.984 39.0937
29.529399 91.994 38.6871
29.743381 92.004 38.2820
29.958914 92.014 37.8782
30.176009 92.024 37.4759
30.394677 92.033 37.0752
30.614929 92.042 36.6759
30.836777 92.050 36.2781
31.060233 92.059 35.8818
31.285309 92.067 35.4869
31.512015 92.075 35.0934
31.740364 92.083 34.7012
31.970368 92.090 34.3102
32.202038 92.098 33.9202
32.435387 92.105 33.5312
32.670428 92.112 33.1431
32.907171 92.119 32.7558
33.145630 92.126 32.3693
33.385817 92.132 31.9834
33.627744 92.138 31.5983
33.871425 92.144 31.2139
34.116871 92.150 30.8304
34.364096 92.155 30.4476
34.613112 92.160 30.0658
34.863933 92.164 29.6851
35.116572 92.168 29.3054
35.371041 92.171 28.9269
35.627354 92.175 28.5496
35.885524 92.178 28.1736
36.145566 92.181 27.7990
36.407491 92.184 27.4257
36.671315 92.186 27.0539
36.937051 92.188 26.6835
37.204712 92.189 26.3147
37.474312 92.191 25.9473
37.745867 92.192 25.5814
38.019389 92.193 25.2170
38.294893 92.194 24.8542
38.572393 92.195 24.4927
38.851905 92.195 24.1326
39.133442 92.196 23.7736
39.417019 92.196 23.4158
39.702651 92.196 23.0591
39.990353 92.195 22.7032
40.280139 92.194 22.3481
40.572026 92.193 21.9939
40.866027 92.192 21.6404
41.162159 92.190 21.2877
41.460437 92.188 20.9360
41.760877 92.186 20.5853
42.063493 92.184 20.2358
42.368303 92.181 19.8879
42.675321 92.178 19.5417
42.984564 92.175 19.1974
43.296048 92.172 18.8549
43.609789 92.168 18.5143
43.925803 92.165 18.1755
44.244108 92.161 17.8381
44.564719 92.158 17.5019
44.887653 92.154 17.1665
45.212928 92.150 16.8318
45.540559 92.146 16.4974
45.870565 92.142 16.1633
46.202962 92.137 15.8296
46.537767 92.133 15.4964
46.874999 92.128 15.1639
47.214675 92.122 14.8325
47.556812 92.116 14.5023
47.901428 92.110 14.1739
48.248542 92.103 13.8474
48.598170 92.096 13.5231
48.950333 92.089 13.2010
49.305047 92.081 12.8813
49.662332 92.074 12.5637
50.022206 92.066 12.2479
50.384687 92.058 11.9335
50.749795 92.050 11.6199
51.117549 92.043 11.3069
51.487968 92.035 10.9939
51.861071 92.027 10.6810
52.236878 92.019 10.3683
52.615408 92.011 10.0559
52.996681 92.003 9.7443
53.380716 91.995 9.4339
53.767535 91.987 9.1250
54.157157 91.978 8.8180
54.549602 91.969 8.5129
54.944891 91.959 8.2097
55.343044 91.949 7.9084
55.744083 91.939 7.6086
56.148027 91.929 7.3100
56.554899 91.920 7.0121
56.964719 91.911 6.7145
57.377509 91.902 6.4172
57.793290 91.893 6.1200
58.212084 91.883 5.8232
58.633913 91.873 5.5272
59.058798 91.861 5.2323
59.486763 91.850 4.9391
59.917828 91.838 4.6476
60.352018 91.825 4.3578
60.789353 91.812 4.0696
61.229858 91.798 3.7827
61.673555 91.783 3.4967
62.120467 91.767 3.2114
62.570617 91.751 2.9268
63.024030 91.737 2.6428
63.480728 91.724 2.3593
63.940735 91.712 2.0765
64.404076 91.700 1.7946
64.870775 91.687 1.5137
65.340855 91.673 1.2337
65.814342 91.657 0.9548
66.291260 91.640 0.6769
66.771634 91.623 0.3998
67.255488 91.607 0.1234
67.742849 91.591 -0.1527
68.233742 91.575 -0.4282
68.728192 91.559 -0.7031
69.226225 91.543 -0.9768
69.727866 91.526 -1.2488
70.233143 91.510 -1.5186
70.742082 91.493 -1.7856
71.254708 91.478 -2.0500
71.771049 91.462 -2.3120
72.291131 91.447 -2.5720
72.814983 91.431 -2.8303
73.342630 91.414 -3.0873
73.874101 91.397 -3.3430
74.409423 91.379 -3.5977
74.948625 91.360 -3.8513
75.491733 91.342 -4.1044
76.038777 91.323 -4.3572
76.589786 91.304 -4.6100
77.144787 91.285 -4.8633
77.703810 91.265 -5.1171
78.266884 91.245 -5.3715
78.834038 91.224 -5.6257
79.405302 91.203 -5.8790
79.980705 91.182 -6.1302
80.560278 91.162 -6.3787
81.144051 91.142 -6.6245
81.732055 91.122 -6.8689
82.324319 91.102 -7.1133
82.920875 91.081 -7.3582
83.521754 91.060 -7.6028
84.126987 91.037 -7.8453
84.736605 91.014 -8.0833
85.350642 90.990 -8.3154
85.969128 90.966 -8.5424
86.592096 90.943 -8.7664
87.219578 90.920 -8.9900
87.851607 90.899 -9.2155
88.488216 90.877 -9.4431
89.129438 90.855 -9.6718
89.775306 90.831 -9.8996
90.425855 90.806 -10.1246
91.081118 90.780 -10.3459
91.741129 90.753 -10.5640
92.405924 90.726 -10.7800
93.075535 90.700 -10.9952
93.749999 90.674 -11.2106
94.429350 90.647 -11.4258
95.113624 90.618 -11.6403
95.802856 90.588 -11.8528
96.497083 90.556 -12.0620
97.196341 90.523 -12.2667
97.900666 90.489 -12.4653
98.610094 90.454 -12.6566
99.324664 90.419 -12.8392
100.044411 90.384 -13.0126
100.769374 90.349 -13.1769
101.499591 90.313 -13.3322
102.235098 90.277 -13.4788
102.975936 90.241 -13.6158
103.722142 90.204 -13.7418
104.473756 90.166 -13.8541
105.230815 90.128 -13.9509
105.993361 90.090 -14.0312
106.761433 90.052 -14.0963
107.535070 90.016 -14.1486
108.314314 89.981 -14.1909
109.099204 89.947 -14.2249
109.889782 89.914 -14.2495
110.686088 89.882 -14.2614
111.488165 89.851 -14.2549
112.296055 89.822 -14.2226
113.109798 89.796 -14.1583
113.929438 89.774 -14.0610
114.755018 89.761 -13.9390
115.586580 89.758 -13.8107
116.424168 89.765 -13.7020
117.267826 89.782 -13.6399
118.117597 89.806 -13.6461
118.973525 89.833 -13.7324
119.835657 89.860 -13.8993
120.704035 89.883 -14.1365
121.578706 89.899 -14.4268
122.459716 89.905 -14.7495
123.347109 89.904 -15.0857
124.240933 89.894 -15.4208
125.141234 89.879 -15.7451
126.048059 89.859 -16.0532
126.961456 89.836 -16.3427
127.881471 89.811 -16.6139
128.808153 89.784 -16.8699
129.741550 89.757 -17.1151
130.681710 89.728 -17.3523
131.628684 89.698 -17.5812
132.582520 89.667 -17.7991
133.543267 89.636 -18.0043
134.510977 89.604 -18.1979
135.485699 89.573 -18.3837
136.467484 89.541 -18.5649
137.456384 89.510 -18.7422
138.452449 89.479 -18.9138
139.455733 89.448 -19.0781
140.466286 89.417 -19.2353
141.484163 89.386 -19.3869
142.509416 89.355 -19.5342
143.542098 89.325 -19.6774
144.582263 89.294 -19.8164
145.629965 89.264 -19.9513
146.685260 89.233 -20.0823
147.748202 89.202 -20.2102
148.818846 89.171 -20.3361
149.897249 89.140 -20.4613
150.983466 89.108 -20.5861
152.077555 89.076 -20.7086
153.179572 89.043 -20.8252
154.289574 89.011 -20.9348
155.407620 88.979 -21.0406
156.533767 88.947 -21.1464
157.668076 88.915 -21.2502
158.810603 88.884 -21.3472
159.961411 88.855 -21.4364
161.120557 88.829 -21.5226
162.288103 88.805 -21.6099
163.464109 88.784 -21.6980
164.648638 88.766 -21.7823
165.841750 88.751 -21.8593
167.043507 88.739 -21.9303
168.253973 88.728 -22.0016
169.473211 88.713 -22.0786
170.701284 88.690 -22.1613
171.938256 88.659 -22.2455
173.184191 88.618 -22.3263
174.439155 88.568 -22.3988
175.703213 88.509 -22.4608
176.976431 88.443 -22.5156
178.258875 88.374 -22.5693
179.550613 88.307 -22.6251
180.851710 88.244 -22.6808
182.162236 88.186 -22.7328
183.482259 88.134 -22.7802
184.811847 88.089 -22.8231
186.151070 88.049 -22.8613
187.499997 88.015 -22.8929
188.858700 87.985 -22.9172
190.227248 87.958 -22.9362
191.605713 87.932 -22.9532
192.994167 87.907 -22.9692
194.392682 87.884 -22.9839
195.801331 87.862 -22.9984
197.220189 87.841 -23.0146
198.649327 87.820 -23.0343
200.088822 87.799 -23.0577
201.538748 87.777 -23.0841
202.999181 87.754 -23.1127
204.470197 87.729 -23.1434
205.951872 87.704 -23.1768
207.444284 87.677 -23.2122
208.947511 87.648 -23.2477
210.461631 87.618 -23.2810
211.986723 87.587 -23.3101
213.522866 87.554 -23.3338
215.070141 87.522 -23.3534
216.628627 87.488 -23.3707
218.198408 87.454 -23.3856
219.779563 87.420 -23.3969
221.372177 87.384 -23.4043
222.976331 87.349 -23.4080
224.592109 87.313 -23.4077
226.219596 87.277 -23.4024
227.858877 87.241 -23.3914
229.510036 87.205 -23.3754
231.173160 87.169 -23.3574
232.848336 87.134 -23.3412
234.535651 87.099 -23.3271
236.235193 87.063 -23.3102
237.947051 87.027 -23.2850
239.671313 86.991 -23.2513
241.408071 86.956 -23.2134
243.157413 86.922 -23.1751
244.919432 86.888 -23.1390
246.694219 86.855 -23.1058
248.481867 86.821 -23.0743
250.282469 86.786 -23.0430
252.096119 86.751 -23.0107
253.922911 86.715 -22.9763
255.762941 86.679 -22.9373
257.616305 86.643 -22.8921
259.483099 86.607 -22.8411
261.363421 86.572 -22.7865
263.257368 86.537 -22.7310
265.165039 86.502 -22.6747
267.086534 86.467 -22.6166
269.021953 86.432 -22.5562
270.971397 86.396 -22.4933
272.934968 86.361 -22.4283
274.912767 86.326 -22.3608
276.904898 86.291 -22.2899
278.911465 86.256 -22.2161
280.932573 86.221 -22.1403
282.968326 86.185 -22.0620
285.018831 86.150 -21.9800
287.084195 86.114 -21.8943
289.164526 86.079 -21.8053
291.259931 86.044 -21.7125
293.370520 86.009 -21.6163
295.496404 85.974 -21.5173
297.637693 85.940 -21.4163
299.794498 85.905 -21.3139
301.966933 85.869 -21.2096
304.155110 85.834 -21.1021
306.359143 85.798 -20.9908
308.579148 85.764 -20.8777
310.815239 85.730 -20.7642
313.067535 85.696 -20.6498
315.336151 85.662 -20.5321
317.621207 85.629 -20.4097
319.922821 85.595 -20.2827
322.241114 85.562 -20.1522
324.576206 85.529 -20.0201
326.928219 85.495 -19.8875
329.297275 85.462 -19.7542
331.683499 85.428 -19.6198
334.087014 85.395 -19.4846
336.507947 85.362 -19.3481
338.946422 85.329 -19.2087
341.402567 85.296 -19.0651
343.876511 85.263 -18.9164
346.368382 85.231 -18.7637
348.878310 85.200 -18.6095
351.406426 85.168 -18.4553
353.952862 85.136 -18.3002
356.517750 85.105 -18.1413
359.101225 85.073 -17.9780
361.703421 85.041 -17.8121
364.324473 85.010 -17.6440
366.964518 84.978 -17.4731
369.623694 84.947 -17.2989
372.302140 84.916 -17.1208
374.999995 84.885 -16.9391
377.717399 84.855 -16.7546
380.454495 84.825 -16.5680
383.211425 84.796 -16.3804
385.988333 84.767 -16.1932
388.785364 84.737 -16.0043
391.602663 84.707 -15.8114
394.440377 84.677 -15.6142
397.298655 84.647 -15.4144
400.177644 84.618 -15.2144
403.077497 84.588 -15.0135
405.998362 84.559 -14.8086
408.940394 84.529 -14.5974
411.903744 84.501 -14.3813
414.888569 84.473 -14.1641
417.895022 84.446 -13.9472
420.923262 84.419 -13.7305
423.973445 84.391 -13.5134
427.045732 84.364 -13.2949
430.140281 84.336 -13.0723
433.257255 84.309 -12.8455
436.396816 84.282 -12.6169
439.559127 84.255 -12.3867
442.744354 84.228 -12.1532
445.952662 84.201 -11.9159
449.184218 84.175 -11.6747
452.439192 84.150 -11.4302
455.717753 84.124 -11.1830
459.020072 84.099 -10.9326
462.346321 84.074 -10.6790
465.696673 84.050 -10.4228
469.071303 84.025 -10.1636
472.470387 84.001 -9.9026
475.894102 83.976 -9.6407
479.342627 83.952 -9.3774
482.816141 83.928 -9.1119
486.314826 83.904 -8.8429
489.838864 83.881 -8.5675
493.388438 83.858 -8.2857
496.963734 83.837 -8.0008
500.564938 83.815 -7.7168
504.192238 83.794 -7.4351
507.845823 83.773 -7.1531
511.525883 83.751 -6.8680
515.232610 83.730 -6.5790
518.966198 83.709 -6.2866
522.726841 83.688 -5.9900
526.514735 83.668 -5.6885
530.330078 83.648 -5.3837
534.173068 83.629 -5.0774
538.043907 83.611 -4.7708
541.942795 83.592 -4.4639
545.869936 83.574 -4.1552
549.825534 83.556 -3.8434
553.809797 83.538 -3.5275
557.822931 83.520 -3.2053
561.865146 83.503 -2.8771
565.936652 83.486 -2.5459
570.037662 83.470 -2.2135
574.168390 83.453 -1.8789
578.329051 83.437 -1.5413
582.519862 83.421 -1.2005
586.741041 83.406 -0.8572
590.992808 83.392 -0.5120
595.275386 83.379 -0.1652
599.588997 83.366 0.1830
603.933866 83.353 0.5332
608.310219 83.341 0.8860
612.718286 83.329 1.2413
617.158295 83.317 1.5989
621.630479 83.305 1.9595
626.135069 83.294 2.3251
630.672302 83.284 2.6956
635.242414 83.274 3.0711
639.845642 83.265 3.4518
644.482227 83.256 3.8375
649.152411 83.247 4.2268
653.856437 83.238 4.6180
658.594551 83.231 5.0091
663.366998 83.224 5.3998
668.174029 83.218 5.7916
673.015893 83.212 6.1860
677.892844 83.207 6.5834
682.805135 83.202 6.9835
687.753022 83.198 7.3872
692.736764 83.195 7.7933
697.756620 83.192 8.2013
702.812853 83.189 8.6136
707.905724 83.187 9.0303
713.035501 83.184 9.4492
718.202450 83.181 9.8700
723.406841 83.179 10.2936
728.648945 83.178 10.7217
733.929036 83.178 11.1526
739.247388 83.181 11.5815
744.604279 83.184 12.0015
749.999989 83.186 12.4110
755.434798 83.187 12.8152
760.908990 83.185 13.2175
766.422850 83.179 13.6184
771.976666 83.170 14.0251
777.570727 83.154 14.4618
783.205325 83.134 14.9733
788.880754 83.116 15.6101
794.597309 83.112 16.3842
800.355289 83.131 17.2263
806.154993 83.175 18.0095
811.996725 83.233 18.6434
817.880788 83.290 19.1289
823.807489 83.338 19.5258
829.777138 83.377 19.8943
835.790045 83.408 20.2701
841.846524 83.435 20.6653
847.946891 83.459 21.0796
854.091464 83.483 21.5084
860.280562 83.508 21.9460
866.514510 83.533 22.3881
872.793631 83.560 22.8333
879.118254 83.587 23.2828
885.488707 83.616 23.7373
891.905323 83.647 24.1951
898.368437 83.678 24.6528
904.878385 83.710 25.1102
911.435507 83.743 25.5684
918.040144 83.777 26.0266
924.692641 83.812 26.4828
931.393345 83.848 26.9368
938.142606 83.886 27.3899
944.940774 83.925 27.8434
951.788204 83.965 28.2965
958.685254 84.006 28.7465
965.632282 84.049 29.1926
972.629652 84.092 29.6338
979.677727 84.136 30.0684
986.776876 84.181 30.4979
993.927468 84.227 30.9225
1001.129876 84.274 31.3388
1008.384476 84.323 31.7462
1015.691645 84.374 32.1492
1023.051766 84.426 32.5501
1030.465221 84.478 32.9486
1037.932396 84.532 33.3435
1045.453682 84.586 33.7318
1053.029471 84.641 34.1107
1060.660156 84.698 34.4808
1068.346137 84.755 34.8458
1076.087813 84.813 35.2072
1083.885589 84.872 35.5644
1091.739871 84.932 35.9164
1099.651068 84.993 36.2610
1107.619593 85.054 36.5980
1115.645861 85.116 36.9268
1123.730291 85.179 37.2467
1131.873304 85.242 37.5601
1140.075325 85.304 37.8687
1148.336780 85.368 38.1729
1156.658102 85.431 38.4740
1165.039724 85.496 38.7719
1173.482082 85.562 39.0653
1181.985617 85.629 39.3536
1190.550772 85.696 39.6356
1199.177993 85.764 39.9097
1207.867731 85.831 40.1785
1216.620439 85.898 40.4461
1225.436572 85.966 40.7135
1234.316591 86.034 40.9799
1243.260957 86.103 41.2441
1252.270139 86.172 41.5034
1261.344604 86.242 41.7550
1270.484827 86.314 41.9995
1279.691284 86.390 42.2400
1288.964455 86.470 42.4793
1298.304823 86.554 42.7177
1307.712874 86.639 42.9545
1317.189101 86.724 43.1903
1326.733996 86.810 43.4259
1336.348058 86.897 43.6601
1346.031787 86.984 43.8912
1355.785688 87.071 44.1157
1365.610270 87.157 44.3334
1375.506045 87.242 44.5480
1385.473529 87.326 44.7631
1395.513241 87.410 44.9763
1405.625705 87.495 45.1848
1415.811448 87.581 45.3895
1426.071002 87.667 45.5922
1436.404900 87.754 45.7925
1446.813682 87.843 45.9893
1457.297890 87.933 46.1816
1467.858072 88.023 46.3687
1478.494776 88.115 46.5497
1489.208559 88.207 46.7246
1499.999978 88.300 46.8932
1510.869596 88.394 47.0542
1521.817980 88.488 47.2094
1532.845701 88.583 47.3620
1543.953332 88.678 47.5127
1555.141455 88.773 47.6586
1566.410651 88.870 47.7964
1577.761508 88.969 47.9240
1589.194618 89.068 48.0399
1600.710578 89.169 48.1426
1612.309986 89.271 48.2316
1623.993449 89.374 48.3080
1635.761575 89.479 48.3733
1647.614978 89.585 48.4275
1659.554275 89.692 48.4713
1671.580089 89.799 48.5047
1683.693048 89.908 48.5264
1695.893782 90.018 48.5343
1708.182927 90.130 48.5258
1720.561125 90.244 48.4981
1733.029020 90.360 48.4502
1745.587263 90.477 48.3823
1758.236508 90.596 48.2936
1770.977414 90.717 48.1822
1783.810646 90.838 48.0468
1796.736874 90.961 47.8866
1809.756770 91.085 47.6997
1822.871013 91.210 47.4832
1836.080288 91.337 47.2339
1849.385283 91.464 46.9494
1862.786691 91.593 46.6294
1876.285211 91.723 46.2743
1889.881547 91.852 45.8831
1903.576408 91.982 45.4532
1917.370507 92.112 44.9843
1931.264564 92.240 44.4775
1945.259304 92.368 43.9320
1959.355454 92.494 43.3458
1973.553752 92.619 42.7159
1987.854936 92.742 42.0403
2002.259752 92.862 41.3199
2016.768952 92.980 40.5553
2031.383291 93.095 39.7462
2046.103531 93.205 38.8935
2060.930441 93.310 37.9984
2075.864793 93.410 37.0616
2090.907365 93.504 36.0841
2106.058941 93.591 35.0664
2121.320313 93.672 34.0081
2136.692274 93.746 32.9108
2152.175627 93.813 31.7780
2167.771179 93.872 30.6146
2183.479742 93.924 29.4246
2199.302137 93.966 28.2117
2215.239187 94.000 26.9796
2231.291723 94.024 25.7327
2247.460582 94.038 24.4765
2263.746608 94.042 23.2161
2280.150649 94.036 21.9553
2296.673561 94.020 20.6997
2313.316204 93.994 19.4552
2330.079447 93.960 18.2277
2346.964163 93.916 17.0217
2363.971233 93.864 15.8414
2381.101543 93.803 14.6912
2398.355986 93.734 13.5756
2415.735463 93.658 12.4989
2433.240878 93.575 11.4639
2450.873144 93.486 10.4710
2468.633181 93.391 9.5223
2486.521915 93.290 8.6206
2504.540278 93.185 7.7697
2522.689209 93.076 6.9719
2540.969655 92.962 6.2267
2559.382568 92.845 5.5319
2577.928909 92.725 4.8875
2596.609645 92.603 4.2952
2615.425749 92.479 3.7554
2634.378202 92.354 3.2659
2653.467992 92.229 2.8243
2672.696115 92.103 2.4294
2692.063573 91.977 2.0808
2711.571376 91.851 1.7783
2731.220539 91.725 1.5211
2751.012089 91.600 1.3081
2770.947057 91.475 1.1382
2791.026482 91.352 1.0089
2811.251410 91.229 0.9169
2831.622897 91.107 0.8613
2852.142003 90.987 0.8441
2872.809800 90.867 0.8661
2893.627364 90.748 0.9268
2914.595781 90.630 1.0242
2935.716143 90.514 1.1570
2956.989553 90.398 1.3269
2978.417118 90.283 1.5367
2999.999956 90.168 1.7899
3021.739192 90.054 2.0897
3043.635960 89.940 2.4377
3065.691401 89.828 2.8362
3087.906665 89.719 3.2888
3110.282909 89.613 3.7979
3132.821301 89.513 4.3636
3155.523016 89.418 4.9860
3178.389237 89.332 5.6614
3201.421155 89.254 6.3810
3224.619973 89.186 7.1342
3247.986898 89.130 7.9093
3271.523150 89.087 8.6940
3295.229956 89.056 9.4769
3319.108550 89.038 10.2523
3343.160179 89.034 11.0195
3367.386096 89.043 11.7798
3391.787563 89.066 12.5334
3416.365854 89.100 13.2780
3441.122250 89.144 14.0109
3466.058040 89.198 14.7330
3491.174525 89.261 15.4460
3516.473015 89.333 16.1490
3541.954828 89.411 16.8396
3567.621293 89.495 17.5136
3593.473747 89.585 18.1635
3619.513539 89.679 18.7794
3645.742027 89.775 19.3538
3672.160576 89.872 19.8834
3698.770566 89.971 20.3672
3725.573382 90.070 20.8037
3752.570422 90.171 21.1932
3779.763094 90.273 21.5378
3807.152816 90.377 21.8392
3834.741015 90.484 22.0952
3862.529129 90.594 22.3018
3890.518607 90.708 22.4566
3918.710909 90.824 22.5594
3947.107503 90.944 22.6074
3975.709871 91.067 22.5959
4004.519504 91.192 22.5217
4033.537903 91.320 22.3810
4062.766581 91.449 22.1660
4092.207063 91.580 21.8662
4121.860882 91.712 21.4716
4151.729585 91.843 20.9730
4181.814729 91.973 20.3621
4212.117883 92.098 19.6315
4242.640625 92.216 18.7776
4273.384548 92.323 17.7987
4304.351254 92.413 16.6950
4335.542358 92.479 15.4753
4366.959485 92.504 14.1874
4398.604273 92.478 12.9796
4430.478373 92.407 12.0117
4462.583446 92.311 11.2888
4494.921165 92.208 10.6776
4527.493217 92.113 10.0724
4560.301299 92.030 9.5056
4593.347122 91.958 9.0745
4626.632409 91.896 8.8359
4660.158894 91.852 8.8071
4693.928327 91.841 8.9543
4727.942466 91.875 9.1789
4762.203086 91.962 9.3257
4796.711973 92.095 9.2229
4831.470925 92.257 8.7267
4866.481755 92.424 7.7555
4901.746288 92.568 6.3027
4937.266362 92.664 4.4342
4973.043830 92.695 2.2720
5009.080555 92.648 -0.0301
5045.378418 92.520 -2.3114
5081.939310 92.314 -4.4170
5118.765137 92.038 -6.2008
5155.857819 91.706 -7.5243
5193.219290 91.336 -8.2604
5230.851498 90.952 -8.3020
5268.756404 90.588 -7.5837
5306.935985 90.290 -6.1375
5345.392231 90.104 -4.1723
5384.127146 90.057 -2.1062
5423.142751 90.134 -0.4547
5462.441079 90.275 0.4173
5502.024179 90.406 0.4995
5541.894114 90.474 0.1224
5582.052963 90.481 -0.2827
5622.502820 90.464 -0.5269
5663.245793 90.457 -0.8011
5704.284007 90.443 -1.4136
5745.619600 90.370 -2.3684
5787.254728 90.210 -3.3097
5829.191562 89.981 -3.9105
5871.432287 89.717 -4.0651
5913.979105 89.447 -3.8171
5956.834236 89.187 -3.2537
5999.999912 88.943 -2.4503
6043.478385 88.719 -1.4625
6087.271921 88.514 -0.3312
6131.382802 88.329 0.9128
6175.813330 88.165 2.2495
6220.565819 88.021 3.6675
6265.642603 87.896 5.1560
6311.046032 87.789 6.7020
6356.778473 87.700 8.2950
6402.842310 87.629 9.9297
6449.239945 87.576 11.6014
6495.973796 87.542 13.3041
6543.046300 87.526 15.0310
6590.459911 87.530 16.7767
6638.217100 87.554 18.5366
6686.320358 87.598 20.3066
6734.772191 87.663 22.0826
6783.575127 87.751 23.8566
6832.731709 87.862 25.6179
6882.244499 87.997 27.3582
6932.116080 88.159 29.0712
6982.349051 88.347 30.7474
7032.946030 88.564 32.3729
7083.909656 88.812 33.9325
7135.242586 89.093 35.4088
7186.947495 89.410 36.7783
7239.027079 89.766 38.0106
7291.484053 90.165 39.0681
7344.321152 90.609 39.9085
7397.541131 91.101 40.4810
7451.146763 91.642 40.7174
7505.140844 92.234 40.5266
7559.526189 92.871 39.7979
7614.305632 93.541 38.4066
7669.482029 94.223 36.2250
7725.058258 94.889 33.1384
7781.037214 95.503 29.0671
7837.421817 96.021 24.0018
7894.215007 96.400 18.0421
7951.419743 96.598 11.4182
8009.039008 96.588 4.4763
8067.075806 96.363 -2.3733
8125.533163 95.943 -8.7302
8184.414126 95.361 -14.2756
8243.721764 94.661 -18.8171
8303.459170 93.885 -22.2916
8363.629458 93.073 -24.7411
8424.235765 92.259 -26.2747
8485.281250 91.469 -27.0309
8546.769096 90.719 -27.1465
8608.702508 90.019 -26.7415
8671.084715 89.372 -25.9197
8733.918969 88.777 -24.7683
8797.208547 88.233 -23.3569
8860.956746 87.739 -21.7424
8925.166891 87.293 -19.9723
8989.842330 86.891 -18.0878
9054.986433 86.531 -16.1251
9120.602598 86.210 -14.1127
9186.694244 85.926 -12.0712
9253.264817 85.676 -10.0191
9320.317788 85.458 -7.9692
9387.856653 85.270 -5.9282
9455.884932 85.110 -3.8966
9524.406173 84.977 -1.8718
9593.423946 84.870 0.1495
9662.941850 84.786 2.1750
9732.963510 84.725 4.2128
9803.492576 84.688 6.2642
9874.532725 84.677 8.3212
9946.087659 84.696 10.3734
10018.161110 84.746 12.4121
10090.756835 84.828 14.4257
10163.878619 84.943 16.3976
10237.530273 85.095 18.3043
10311.715638 85.284 20.1140
10386.438580 85.514 21.7908
10461.702996 85.785 23.2972
10537.512808 86.099 24.5902
10613.871970 86.456 25.6191
10690.784461 86.853 26.3229
10768.254293 87.288 26.6288
10846.285502 87.754 26.4564
10924.882158 88.243 25.7197
11004.048358 88.741 24.3362
11083.788228 89.226 22.2405
11164.105927 89.674 19.4006
11245.005640 90.056 15.8329
11326.491587 90.344 11.6135
11408.568014 90.516 6.8837
11491.239200 90.553 1.8387
11574.509457 90.447 -3.2988
11658.383123 90.202 -8.3062
11742.864573 89.825 -12.9877
11827.958211 89.334 -17.1917
11913.668472 88.747 -20.8156
11999.999825 88.085 -23.7996
12086.956770 87.370 -26.1191
12174.543841 86.618 -27.7747
12262.765605 85.845 -28.7798
12351.626659 85.063 -29.1528
12441.131638 84.284 -28.9139
12531.285206 83.518 -28.0872
12622.092064 82.777 -26.7098
12713.556946 82.073 -24.8386
12805.684621 81.416 -22.5491
12898.479890 80.812 -19.9299
12991.947593 80.264 -17.0735
13086.092601 79.773 -14.0676
13180.919822 79.332 -10.9894
13276.434201 78.933 -7.8988
13372.640716 78.574 -4.8319
13469.544383 78.263 -1.7985
13567.150254 78.012 1.2101
13665.463417 77.849 4.2048
13764.488998 77.821 7.1884
13864.232160 78.022 10.1398
13964.698101 78.571 12.9963
14065.892060 79.514 15.6367
14167.819312 80.745 17.8799
14270.485171 82.078 19.4950
14373.894990 83.349 20.2261
14478.054158 84.438 19.8203
14582.968107 85.285 18.0677
14688.642305 85.897 14.8677
14795.082262 86.286 10.2975
14902.293527 86.439 4.6509
15010.281689 86.328 -1.5854
15119.052378 85.943 -7.8164
15228.611264 85.311 -13.4733
15338.964058 84.496 -18.1392
15450.116515 83.590 -21.5972
15562.074428 82.692 -23.8080
15674.843635 81.881 -24.8694
15788.430013 81.210 -24.9878
15902.839485 80.712 -24.4449
16018.078016 80.410 -23.5728
16134.151612 80.298 -22.6979
16251.066326 80.328 -22.0503
16368.828251 80.438 -21.6523
16487.443528 80.613 -21.2988
16606.918341 80.938 -20.9808
16727.258917 81.503 -21.7649
16848.471530 82.194 -25.3693
16970.562500 82.734 -32.3429
17093.538192 82.891 -41.8771
17217.405016 82.540 -52.6238
17342.169430 81.659 -63.1812
17467.837939 80.299 -72.3848
17594.417093 78.558 -79.4681
17721.913492 76.544 -84.0173
17850.333783 74.360 -85.7941
17979.684660 72.100 -84.5607
18109.972866 69.876 -80.0897
18241.205195 67.839 -72.5474
18373.388487 66.157 -62.8539
18506.529634 64.940 -52.5657
18640.635577 64.179 -43.4222
18775.713306 63.717 -36.5052
18911.769865 63.351 -31.8284
19048.812345 62.921 -28.8268
19186.847892 62.334 -26.8635
19325.883701 61.544 -25.2594
19465.927021 60.543 -23.3167
19606.985152 59.357 -20.4416
19749.065449 58.060 -16.2416
19892.175318 56.862 -10.9348
20036.322221 56.128 -6.4712
