* Measurement data measured by REW V5.40 beta 105
* Source: Microphone (USB Multi-Channel Audio Device), MICROPHONE (Master Volume), L, volume: 0.490
* Format: 256k Log Swept Sine, 1 sweep at -6.0 dBFS with no timing reference
* Dated: Nov 19, 2025 9:22:10 PM
* REW Settings:
*  C-weighting compensation: Off
*  Target level: 75.0 dB
* Note: ; 
* Measurement: ZAX R
* Smoothing: 1/24 octave
* Frequency Step: 96 ppo
* Start Frequency: 20.0 Hz
*
* Freq(Hz) SPL(dB) Phase(degrees)
19.995176 90.840 57.9286
20.140070 90.867 57.4716
20.286013 90.894 57.0157
20.433014 90.921 56.5609
20.581080 90.947 56.1074
20.730219 90.972 55.6550
20.880438 90.997 55.2037
21.031747 91.022 54.7536
21.184151 91.046 54.3047
21.337660 91.070 53.8569
21.492282 91.094 53.4104
21.648024 91.117 52.9650
21.804894 91.140 52.5209
21.962902 91.163 52.0779
22.122054 91.186 51.6362
22.282359 91.208 51.1957
22.443827 91.230 50.7564
22.606464 91.251 50.3183
22.770280 91.272 49.8813
22.935282 91.293 49.4454
23.101481 91.313 49.0106
23.268884 91.333 48.5768
23.437500 91.352 48.1440
23.607337 91.371 47.7121
23.778406 91.390 47.2811
23.950714 91.409 46.8509
24.124271 91.427 46.4214
24.299085 91.445 45.9927
24.475166 91.463 45.5647
24.652524 91.480 45.1375
24.831166 91.497 44.7110
25.011103 91.513 44.2853
25.192344 91.529 43.8604
25.374898 91.544 43.4366
25.558775 91.559 43.0137
25.743984 91.574 42.5920
25.930536 91.588 42.1716
26.118439 91.602 41.7525
26.307704 91.616 41.3348
26.498340 91.629 40.9188
26.690358 91.642 40.5043
26.883768 91.655 40.0915
27.078578 91.667 39.6804
27.274801 91.678 39.2710
27.472445 91.689 38.8633
27.671522 91.700 38.4573
27.872041 91.710 38.0529
28.074014 91.720 37.6501
28.277450 91.730 37.2488
28.482360 91.739 36.8488
28.688755 91.748 36.4503
28.896645 91.757 36.0530
29.106042 91.766 35.6569
29.316956 91.775 35.2621
29.529399 91.783 34.8685
29.743381 91.791 34.4760
29.958914 91.799 34.0847
30.176009 91.806 33.6946
30.394677 91.813 33.3058
30.614929 91.820 32.9181
30.836777 91.826 32.5316
31.060233 91.832 32.1463
31.285309 91.838 31.7621
31.512015 91.844 31.3790
31.740364 91.849 30.9970
31.970368 91.855 30.6159
32.202038 91.860 30.2357
32.435387 91.865 29.8564
32.670428 91.870 29.4777
32.907171 91.874 29.0996
33.145630 91.878 28.7222
33.385817 91.882 28.3453
33.627744 91.886 27.9689
33.871425 91.889 27.5931
34.116871 91.892 27.2180
34.364096 91.895 26.8436
34.613112 91.897 26.4703
34.863933 91.898 26.0984
35.116572 91.899 25.7281
35.371041 91.899 25.3598
35.627354 91.899 24.9940
35.885524 91.899 24.6310
36.145566 91.898 24.2711
36.407491 91.898 23.9147
36.671315 91.897 23.5617
36.937051 91.896 23.2121
37.204712 91.895 22.8656
37.474312 91.894 22.5216
37.745867 91.893 22.1797
38.019389 91.893 21.8391
38.294893 91.893 21.4990
38.572393 91.893 21.1588
38.851905 91.893 20.8180
39.133442 91.893 20.4762
39.417019 91.893 20.1334
39.702651 91.893 19.7896
39.990353 91.892 19.4451
40.280139 91.891 19.1001
40.572026 91.890 18.7551
40.866027 91.887 18.4105
41.162159 91.885 18.0666
41.460437 91.882 17.7235
41.760877 91.879 17.3815
42.063493 91.876 17.0406
42.368303 91.873 16.7009
42.675321 91.869 16.3625
42.984564 91.865 16.0256
43.296048 91.860 15.6899
43.609789 91.856 15.3558
43.925803 91.851 15.0232
44.244108 91.845 14.6921
44.564719 91.840 14.3628
44.887653 91.834 14.0350
45.212928 91.828 13.7089
45.540559 91.821 13.3846
45.870565 91.815 13.0623
46.202962 91.808 12.7419
46.537767 91.801 12.4237
46.874999 91.793 12.1077
47.214675 91.786 11.7939
47.556812 91.778 11.4822
47.901428 91.771 11.1722
48.248542 91.763 10.8636
48.598170 91.755 10.5557
48.950333 91.746 10.2479
49.305047 91.738 9.9399
49.662332 91.729 9.6315
50.022206 91.720 9.3227
50.384687 91.711 9.0140
50.749795 91.702 8.7061
51.117549 91.692 8.3995
51.487968 91.681 8.0951
51.861071 91.671 7.7932
52.236878 91.660 7.4939
52.615408 91.650 7.1969
52.996681 91.640 6.9015
53.380716 91.630 6.6072
53.767535 91.621 6.3132
54.157157 91.612 6.0190
54.549602 91.602 5.7244
54.944891 91.591 5.4291
55.343044 91.580 5.1329
55.744083 91.569 4.8362
56.148027 91.558 4.5389
56.554899 91.548 4.2415
56.964719 91.537 3.9444
57.377509 91.526 3.6481
57.793290 91.515 3.3531
58.212084 91.502 3.0602
58.633913 91.489 2.7695
59.058798 91.476 2.4813
59.486763 91.462 2.1956
59.917828 91.447 1.9121
60.352018 91.433 1.6308
60.789353 91.418 1.3513
61.229858 91.402 1.0735
61.673555 91.385 0.7971
62.120467 91.367 0.5221
62.570617 91.350 0.2482
63.024030 91.333 -0.0248
63.480728 91.319 -0.2971
63.940735 91.306 -0.5690
64.404076 91.292 -0.8406
64.870775 91.278 -1.1117
65.340855 91.262 -1.3824
65.814342 91.245 -1.6522
66.291260 91.227 -1.9208
66.771634 91.208 -2.1876
67.255488 91.190 -2.4526
67.742849 91.172 -2.7156
68.233742 91.154 -2.9769
68.728192 91.137 -3.2365
69.226225 91.120 -3.4946
69.727866 91.102 -3.7515
70.233143 91.085 -4.0071
70.742082 91.069 -4.2615
71.254708 91.052 -4.5148
71.771049 91.036 -4.7671
72.291131 91.020 -5.0187
72.814983 91.004 -5.2698
73.342630 90.986 -5.5203
73.874101 90.968 -5.7701
74.409423 90.948 -6.0195
74.948625 90.928 -6.2687
75.491733 90.908 -6.5181
76.038777 90.887 -6.7681
76.589786 90.866 -7.0182
77.144787 90.844 -7.2675
77.703810 90.820 -7.5139
78.266884 90.795 -7.7560
78.834038 90.770 -7.9927
79.405302 90.745 -8.2244
79.980705 90.721 -8.4517
80.560278 90.697 -8.6761
81.144051 90.675 -8.8990
81.732055 90.652 -9.1213
82.324319 90.630 -9.3438
82.920875 90.606 -9.5668
83.521754 90.583 -9.7904
84.126987 90.558 -10.0139
84.736605 90.533 -10.2362
85.350642 90.507 -10.4565
85.969128 90.480 -10.6742
86.592096 90.453 -10.8893
87.219578 90.427 -11.1018
87.851607 90.401 -11.3120
88.488216 90.375 -11.5198
89.129438 90.348 -11.7250
89.775306 90.321 -11.9276
90.425855 90.292 -12.1277
91.081118 90.262 -12.3253
91.741129 90.231 -12.5206
92.405924 90.200 -12.7131
93.075535 90.168 -12.9014
93.749999 90.136 -13.0836
94.429350 90.102 -13.2570
95.113624 90.067 -13.4180
95.802856 90.029 -13.5623
96.497083 89.991 -13.6858
97.196341 89.953 -13.7852
97.900666 89.916 -13.8596
98.610094 89.883 -13.9120
99.324664 89.854 -13.9496
100.044411 89.829 -13.9825
100.769374 89.809 -14.0208
101.499591 89.792 -14.0699
102.235098 89.777 -14.1312
102.975936 89.764 -14.2030
103.722142 89.751 -14.2849
104.473756 89.740 -14.3790
105.230815 89.729 -14.4892
105.993361 89.718 -14.6178
106.761433 89.706 -14.7648
107.535070 89.692 -14.9271
108.314314 89.677 -15.0994
109.099204 89.659 -15.2755
109.889782 89.639 -15.4496
110.686088 89.618 -15.6175
111.488165 89.597 -15.7767
112.296055 89.575 -15.9270
113.109798 89.553 -16.0702
113.929438 89.532 -16.2091
114.755018 89.512 -16.3472
115.586580 89.492 -16.4871
116.424168 89.472 -16.6306
117.267826 89.452 -16.7783
118.117597 89.432 -16.9310
118.973525 89.412 -17.0886
119.835657 89.393 -17.2512
120.704035 89.372 -17.4175
121.578706 89.351 -17.5866
122.459716 89.329 -17.7582
123.347109 89.305 -17.9318
124.240933 89.280 -18.1062
125.141234 89.253 -18.2784
126.048059 89.226 -18.4445
126.961456 89.198 -18.6019
127.881471 89.170 -18.7515
128.808153 89.143 -18.8971
129.741550 89.116 -19.0427
130.681710 89.089 -19.1904
131.628684 89.061 -19.3398
132.582520 89.033 -19.4890
133.543267 89.004 -19.6360
134.510977 88.975 -19.7795
135.485699 88.945 -19.9200
136.467484 88.915 -20.0581
137.456384 88.886 -20.1946
138.452449 88.856 -20.3291
139.455733 88.826 -20.4596
140.466286 88.795 -20.5847
141.484163 88.765 -20.7045
142.509416 88.736 -20.8211
143.542098 88.707 -20.9365
144.582263 88.677 -21.0515
145.629965 88.648 -21.1653
146.685260 88.617 -21.2773
147.748202 88.587 -21.3875
148.818846 88.556 -21.4962
149.897249 88.526 -21.6041
150.983466 88.494 -21.7108
152.077555 88.463 -21.8165
153.179572 88.430 -21.9208
154.289574 88.397 -22.0215
155.407620 88.363 -22.1149
156.533767 88.328 -22.1977
157.668076 88.295 -22.2703
158.810603 88.263 -22.3362
159.961411 88.233 -22.3997
161.120557 88.206 -22.4628
162.288103 88.181 -22.5255
163.464109 88.159 -22.5864
164.648638 88.140 -22.6448
165.841750 88.125 -22.7002
167.043507 88.112 -22.7526
168.253973 88.099 -22.8024
169.473211 88.082 -22.8503
170.701284 88.058 -22.8964
171.938256 88.026 -22.9397
173.184191 87.986 -22.9808
174.439155 87.938 -23.0220
175.703213 87.881 -23.0649
176.976431 87.816 -23.1075
178.258875 87.747 -23.1458
179.550613 87.678 -23.1775
180.851710 87.614 -23.2032
182.162236 87.557 -23.2244
183.482259 87.506 -23.2426
184.811847 87.462 -23.2590
186.151070 87.425 -23.2750
187.499997 87.394 -23.2914
188.858700 87.367 -23.3104
190.227248 87.342 -23.3369
191.605713 87.318 -23.3734
192.994167 87.292 -23.4152
194.392682 87.264 -23.4527
195.801331 87.236 -23.4794
197.220189 87.208 -23.4946
198.649327 87.181 -23.5032
200.088822 87.153 -23.5118
201.538748 87.125 -23.5239
202.999181 87.095 -23.5361
204.470197 87.063 -23.5422
205.951872 87.029 -23.5380
207.444284 86.995 -23.5238
208.947511 86.961 -23.5032
210.461631 86.926 -23.4793
211.986723 86.891 -23.4524
213.522866 86.854 -23.4197
215.070141 86.817 -23.3769
216.628627 86.779 -23.3221
218.198408 86.742 -23.2563
219.779563 86.705 -23.1797
221.372177 86.667 -23.0885
222.976331 86.631 -22.9736
224.592109 86.598 -22.8267
226.219596 86.571 -22.6617
227.858877 86.551 -22.5173
229.510036 86.533 -22.4180
231.173160 86.515 -22.3507
232.848336 86.495 -22.2948
234.535651 86.475 -22.2505
236.235193 86.454 -22.2260
237.947051 86.432 -22.2203
239.671313 86.409 -22.2274
241.408071 86.383 -22.2428
243.157413 86.356 -22.2623
244.919432 86.327 -22.2822
246.694219 86.296 -22.2996
248.481867 86.263 -22.3110
250.282469 86.229 -22.3143
252.096119 86.195 -22.3104
253.922911 86.159 -22.2997
255.762941 86.123 -22.2798
257.616305 86.087 -22.2492
259.483099 86.050 -22.2104
261.363421 86.014 -22.1681
263.257368 85.977 -22.1234
265.165039 85.940 -22.0728
267.086534 85.903 -22.0126
269.021953 85.865 -21.9427
270.971397 85.829 -21.8661
272.934968 85.794 -21.7866
274.912767 85.758 -21.7058
276.904898 85.723 -21.6223
278.911465 85.688 -21.5339
280.932573 85.653 -21.4398
282.968326 85.619 -21.3431
285.018831 85.584 -21.2462
287.084195 85.549 -21.1478
289.164526 85.514 -21.0452
291.259931 85.480 -20.9377
293.370520 85.446 -20.8278
295.496404 85.413 -20.7188
297.637693 85.379 -20.6118
299.794498 85.346 -20.5045
301.966933 85.311 -20.3936
304.155110 85.276 -20.2770
306.359143 85.241 -20.1542
308.579148 85.206 -20.0262
310.815239 85.172 -19.8939
313.067535 85.138 -19.7580
315.336151 85.104 -19.6196
317.621207 85.071 -19.4812
319.922821 85.038 -19.3440
322.241114 85.004 -19.2059
324.576206 84.971 -19.0641
326.928219 84.938 -18.9185
329.297275 84.906 -18.7713
331.683499 84.874 -18.6237
334.087014 84.842 -18.4748
336.507947 84.810 -18.3240
338.946422 84.779 -18.1719
341.402567 84.747 -18.0154
343.876511 84.716 -17.8503
346.368382 84.685 -17.6781
348.878310 84.655 -17.5045
351.406426 84.624 -17.3309
353.952862 84.594 -17.1561
356.517750 84.564 -16.9796
359.101225 84.534 -16.8011
361.703421 84.505 -16.6210
364.324473 84.475 -16.4400
366.964518 84.446 -16.2578
369.623694 84.417 -16.0737
372.302140 84.387 -15.8875
374.999995 84.358 -15.6979
377.717399 84.329 -15.5039
380.454495 84.299 -15.3060
383.211425 84.270 -15.1051
385.988333 84.241 -14.9030
388.785364 84.213 -14.7012
391.602663 84.185 -14.4993
394.440377 84.157 -14.2945
397.298655 84.130 -14.0856
400.177644 84.102 -13.8732
403.077497 84.076 -13.6571
405.998362 84.049 -13.4377
408.940394 84.023 -13.2161
411.903744 83.997 -12.9938
414.888569 83.971 -12.7720
417.895022 83.945 -12.5488
420.923262 83.919 -12.3220
423.973445 83.893 -12.0911
427.045732 83.867 -11.8557
430.140281 83.841 -11.6164
433.257255 83.816 -11.3756
436.396816 83.791 -11.1355
439.559127 83.767 -10.8958
442.744354 83.742 -10.6537
445.952662 83.718 -10.4078
449.184218 83.695 -10.1583
452.439192 83.672 -9.9056
455.717753 83.649 -9.6486
459.020072 83.626 -9.3872
462.346321 83.604 -9.1244
465.696673 83.582 -8.8617
469.071303 83.560 -8.5976
472.470387 83.538 -8.3307
475.894102 83.516 -8.0615
479.342627 83.494 -7.7901
482.816141 83.473 -7.5166
486.314826 83.451 -7.2409
489.838864 83.431 -6.9615
493.388438 83.411 -6.6778
496.963734 83.391 -6.3910
500.564938 83.372 -6.1027
504.192238 83.352 -5.8143
507.845823 83.332 -5.5262
511.525883 83.312 -5.2366
515.232610 83.294 -4.9436
518.966198 83.275 -4.6466
522.726841 83.258 -4.3450
526.514735 83.241 -4.0380
530.330078 83.224 -3.7260
534.173068 83.207 -3.4117
538.043907 83.191 -3.0964
541.942795 83.174 -2.7798
545.869936 83.157 -2.4604
549.825534 83.141 -2.1385
553.809797 83.126 -1.8156
557.822931 83.112 -1.4907
561.865146 83.098 -1.1630
565.936652 83.084 -0.8334
570.037662 83.071 -0.5028
574.168390 83.058 -0.1706
578.329051 83.046 0.1644
582.519862 83.034 0.5014
586.741041 83.022 0.8407
590.992808 83.010 1.1855
595.275386 82.998 1.5364
599.588997 82.987 1.8893
603.933866 82.977 2.2418
608.310219 82.967 2.5940
612.718286 82.958 2.9476
617.158295 82.949 3.3037
621.630479 82.941 3.6632
626.135069 82.934 4.0281
630.672302 82.927 4.3974
635.242414 82.921 4.7687
639.845642 82.916 5.1403
644.482227 82.911 5.5117
649.152411 82.906 5.8832
653.856437 82.902 6.2557
658.594551 82.897 6.6304
663.366998 82.893 7.0084
668.174029 82.890 7.3915
673.015893 82.887 7.7776
677.892844 82.884 8.1649
682.805135 82.882 8.5532
687.753022 82.881 8.9412
692.736764 82.881 9.3275
697.756620 82.882 9.7111
702.812853 82.884 10.0883
707.905724 82.886 10.4573
713.035501 82.889 10.8195
718.202450 82.893 11.1764
723.406841 82.896 11.5267
728.648945 82.898 11.8616
733.929036 82.898 12.1712
739.247388 82.894 12.4561
744.604279 82.884 12.7247
749.999989 82.865 12.9838
755.434798 82.833 13.2498
760.908990 82.787 13.5783
766.422850 82.731 14.0620
771.976666 82.680 14.7562
777.570727 82.650 15.6078
783.205325 82.649 16.4921
788.880754 82.669 17.3096
794.597309 82.700 18.0282
800.355289 82.731 18.6700
806.154993 82.757 19.2811
811.996725 82.778 19.9015
817.880788 82.796 20.5540
823.807489 82.816 21.2543
829.777138 82.843 22.0105
835.790045 82.881 22.8118
841.846524 82.935 23.6206
847.946891 83.004 24.3812
854.091464 83.084 25.0419
860.280562 83.168 25.5808
866.514510 83.248 26.0112
872.793631 83.322 26.3647
879.118254 83.386 26.6763
885.488707 83.443 26.9747
891.905323 83.493 27.2803
898.368437 83.539 27.6030
904.878385 83.582 27.9440
911.435507 83.623 28.3009
918.040144 83.663 28.6718
924.692641 83.703 29.0535
931.393345 83.743 29.4432
938.142606 83.784 29.8400
944.940774 83.826 30.2426
951.788204 83.870 30.6487
958.685254 83.915 31.0573
965.632282 83.962 31.4662
972.629652 84.010 31.8716
979.677727 84.060 32.2707
986.776876 84.111 32.6620
993.927468 84.164 33.0446
1001.129876 84.218 33.4203
1008.384476 84.271 33.7955
1015.691645 84.324 34.1738
1023.051766 84.378 34.5504
1030.465221 84.433 34.9188
1037.932396 84.488 35.2774
1045.453682 84.545 35.6282
1053.029471 84.603 35.9725
1060.660156 84.661 36.3107
1068.346137 84.722 36.6448
1076.087813 84.783 36.9771
1083.885589 84.844 37.3087
1091.739871 84.907 37.6357
1099.651068 84.970 37.9557
1107.619593 85.034 38.2690
1115.645861 85.098 38.5749
1123.730291 85.163 38.8716
1131.873304 85.229 39.1614
1140.075325 85.295 39.4480
1148.336780 85.362 39.7313
1156.658102 85.429 40.0088
1165.039724 85.498 40.2808
1173.482082 85.567 40.5495
1181.985617 85.636 40.8152
1190.550772 85.705 41.0775
1199.177993 85.776 41.3348
1207.867731 85.847 41.5858
1216.620439 85.918 41.8313
1225.436572 85.991 42.0742
1234.316591 86.064 42.3147
1243.260957 86.137 42.5499
1252.270139 86.211 42.7785
1261.344604 86.285 43.0044
1270.484827 86.361 43.2314
1279.691284 86.441 43.4589
1288.964455 86.526 43.6826
1298.304823 86.614 43.9001
1307.712874 86.704 44.1137
1317.189101 86.795 44.3264
1326.733996 86.887 44.5379
1336.348058 86.979 44.7448
1346.031787 87.071 44.9444
1355.785688 87.163 45.1381
1365.610270 87.255 45.3277
1375.506045 87.345 45.5139
1385.473529 87.436 45.6979
1395.513241 87.527 45.8799
1405.625705 87.619 46.0587
1415.811448 87.712 46.2326
1426.071002 87.806 46.4005
1436.404900 87.900 46.5617
1446.813682 87.996 46.7170
1457.297890 88.092 46.8678
1467.858072 88.188 47.0142
1478.494776 88.287 47.1544
1489.208559 88.386 47.2866
1499.999978 88.486 47.4120
1510.869596 88.587 47.5312
1521.817980 88.689 47.6434
1532.845701 88.792 47.7458
1543.953332 88.897 47.8368
1555.141455 89.002 47.9168
1566.410651 89.108 47.9852
1577.761508 89.215 48.0421
1589.194618 89.324 48.0891
1600.710578 89.434 48.1255
1612.309986 89.545 48.1486
1623.993449 89.656 48.1561
1635.761575 89.769 48.1472
1647.614978 89.884 48.1215
1659.554275 90.000 48.0787
1671.580089 90.117 48.0191
1683.693048 90.236 47.9406
1695.893782 90.357 47.8402
1708.182927 90.480 47.7162
1720.561125 90.604 47.5681
1733.029020 90.729 47.3947
1745.587263 90.854 47.1935
1758.236508 90.980 46.9633
1770.977414 91.106 46.7039
1783.810646 91.233 46.4141
1796.736874 91.360 46.0919
1809.756770 91.489 45.7356
1822.871013 91.617 45.3446
1836.080288 91.746 44.9186
1849.385283 91.876 44.4554
1862.786691 92.006 43.9514
1876.285211 92.135 43.4052
1889.881547 92.263 42.8175
1903.576408 92.390 42.1891
1917.370507 92.516 41.5201
1931.264564 92.640 40.8073
1945.259304 92.761 40.0464
1959.355454 92.880 39.2357
1973.553752 92.995 38.3775
1987.854936 93.106 37.4739
2002.259752 93.212 36.5246
2016.768952 93.312 35.5295
2031.383291 93.406 34.4917
2046.103531 93.495 33.4141
2060.930441 93.577 32.2962
2075.864793 93.651 31.1371
2090.907365 93.717 29.9396
2106.058941 93.775 28.7088
2121.320313 93.823 27.4503
2136.692274 93.863 26.1694
2152.175627 93.892 24.8701
2167.771179 93.912 23.5562
2183.479742 93.922 22.2328
2199.302137 93.923 20.9058
2215.239187 93.913 19.5803
2231.291723 93.893 18.2610
2247.460582 93.863 16.9540
2263.746608 93.822 15.6665
2280.150649 93.772 14.4045
2296.673561 93.712 13.1711
2313.316204 93.644 11.9694
2330.079447 93.568 10.8036
2346.964163 93.485 9.6786
2363.971233 93.396 8.5988
2381.101543 93.300 7.5652
2398.355986 93.197 6.5801
2415.735463 93.089 5.6469
2433.240878 92.976 4.7673
2450.873144 92.858 3.9424
2468.633181 92.737 3.1735
2486.521915 92.612 2.4601
2504.540278 92.486 1.7996
2522.689209 92.358 1.1901
2540.969655 92.228 0.6317
2559.382568 92.097 0.1248
2577.928909 91.966 -0.3301
2596.609645 91.835 -0.7338
2615.425749 91.704 -1.0898
2634.378202 91.574 -1.3997
2653.467992 91.444 -1.6633
2672.696115 91.316 -1.8824
2692.063573 91.188 -2.0598
2711.571376 91.062 -2.1985
2731.220539 90.937 -2.3014
2751.012089 90.815 -2.3688
2770.947057 90.694 -2.3992
2791.026482 90.575 -2.3922
2811.251410 90.459 -2.3505
2831.622897 90.344 -2.2772
2852.142003 90.232 -2.1763
2872.809800 90.122 -2.0494
2893.627364 90.013 -1.8962
2914.595781 89.906 -1.7153
2935.716143 89.801 -1.5044
2956.989553 89.697 -1.2629
2978.417118 89.595 -0.9927
2999.999956 89.494 -0.6946
3021.739192 89.394 -0.3660
3043.635960 89.296 -0.0033
3065.691401 89.198 0.3938
3087.906665 89.102 0.8235
3110.282909 89.007 1.2870
3132.821301 88.914 1.7883
3155.523016 88.823 2.3309
3178.389237 88.735 2.9161
3201.421155 88.650 3.5445
3224.619973 88.571 4.2152
3247.986898 88.497 4.9271
3271.523150 88.430 5.6826
3295.229956 88.372 6.4893
3319.108550 88.323 7.3580
3343.160179 88.289 8.2979
3367.386096 88.273 9.3104
3391.787563 88.279 10.3890
3416.365854 88.310 11.5168
3441.122250 88.367 12.6654
3466.058040 88.453 13.8000
3491.174525 88.565 14.8815
3516.473015 88.700 15.8710
3541.954828 88.850 16.7410
3567.621293 89.009 17.4784
3593.473747 89.171 18.0817
3619.513539 89.332 18.5553
3645.742027 89.489 18.9092
3672.160576 89.638 19.1627
3698.770566 89.780 19.3401
3725.573382 89.914 19.4601
3752.570422 90.043 19.5331
3779.763094 90.168 19.5621
3807.152816 90.292 19.5479
3834.741015 90.416 19.4904
3862.529129 90.541 19.3870
3890.518607 90.668 19.2305
3918.710909 90.798 19.0125
3947.107503 90.930 18.7236
3975.709871 91.063 18.3551
4004.519504 91.196 17.8995
4033.537903 91.329 17.3472
4062.766581 91.460 16.6886
4092.207063 91.588 15.9188
4121.860882 91.711 15.0334
4151.729585 91.826 14.0266
4181.814729 91.931 12.8967
4212.117883 92.023 11.6506
4242.640625 92.099 10.2993
4273.384548 92.157 8.8530
4304.351254 92.196 7.3221
4335.542358 92.213 5.7201
4366.959485 92.209 4.0610
4398.604273 92.180 2.3561
4430.478373 92.125 0.6169
4462.583446 92.042 -1.1399
4494.921165 91.929 -2.8906
4527.493217 91.782 -4.6033
4560.301299 91.600 -6.2358
4593.347122 91.384 -7.7399
4626.632409 91.135 -9.0656
4660.158894 90.858 -10.1622
4693.928327 90.557 -10.9808
4727.942466 90.240 -11.4877
4762.203086 89.918 -11.6726
4796.711973 89.599 -11.5448
4831.470925 89.293 -11.1306
4866.481755 89.003 -10.4707
4901.746288 88.732 -9.6112
4937.266362 88.477 -8.5803
4973.043830 88.236 -7.3582
5009.080555 88.009 -5.8730
5045.378418 87.811 -4.0404
5081.939310 87.667 -1.8313
5118.765137 87.608 0.6539
5155.857819 87.654 3.1588
5193.219290 87.798 5.3589
5230.851498 88.006 7.0336
5268.756404 88.239 8.1624
5306.935985 88.474 8.8605
5345.392231 88.703 9.2404
5384.127146 88.924 9.3364
5423.142751 89.126 9.1505
5462.441079 89.299 8.7652
5502.024179 89.451 8.3522
5541.894114 89.617 7.9113
5582.052963 89.800 7.0325
5622.502820 89.922 5.4265
5663.245793 89.917 3.4993
5704.284007 89.798 1.8018
5745.619600 89.616 0.4907
5787.254728 89.392 -0.4860
5829.191562 89.131 -1.1014
5871.432287 88.850 -1.3090
5913.979105 88.566 -1.1245
5956.834236 88.294 -0.6131
5999.999912 88.042 0.1526
6043.478385 87.812 1.1173
6087.271921 87.605 2.2394
6131.382802 87.420 3.4852
6175.813330 87.257 4.8324
6220.565819 87.115 6.2669
6265.642603 86.995 7.7772
6311.046032 86.894 9.3497
6356.778473 86.813 10.9724
6402.842310 86.751 12.6377
6449.239945 86.709 14.3388
6495.973796 86.687 16.0701
6543.046300 86.685 17.8277
6590.459911 86.703 19.6060
6638.217100 86.743 21.3958
6686.320358 86.806 23.1880
6734.772191 86.892 24.9762
6783.575127 87.001 26.7546
6832.731709 87.135 28.5169
6882.244499 87.295 30.2549
6932.116080 87.482 31.9563
6982.349051 87.699 33.6069
7032.946030 87.949 35.1895
7083.909656 88.234 36.6823
7135.242586 88.555 38.0615
7186.947495 88.916 39.2964
7239.027079 89.319 40.3456
7291.484053 89.766 41.1609
7344.321152 90.260 41.6844
7397.541131 90.801 41.8406
7451.146763 91.388 41.5372
7505.140844 92.016 40.6674
7559.526189 92.672 39.1128
7614.305632 93.334 36.7570
7669.482029 93.970 33.5058
7725.058258 94.542 29.3140
7781.037214 95.011 24.2197
7837.421817 95.335 18.3685
7894.215007 95.482 12.0200
7951.419743 95.433 5.5200
8009.039008 95.185 -0.7546
8067.075806 94.758 -6.4576
8125.533163 94.187 -11.3279
8184.414126 93.514 -15.2253
8243.721764 92.781 -18.1257
8303.459170 92.025 -20.0878
8363.629458 91.274 -21.2205
8424.235765 90.550 -21.6517
8485.281250 89.867 -21.5066
8546.769096 89.234 -20.8994
8608.702508 88.654 -19.9302
8671.084715 88.129 -18.6827
8733.918969 87.656 -17.2255
8797.208547 87.235 -15.6140
8860.956746 86.862 -13.8947
8925.166891 86.533 -12.1089
8989.842330 86.243 -10.2920
9054.986433 85.988 -8.4685
9120.602598 85.765 -6.6538
9186.694244 85.570 -4.8560
9253.264817 85.401 -3.0774
9320.317788 85.255 -1.3162
9387.856653 85.133 0.4316
9455.884932 85.034 2.1696
9524.406173 84.961 3.9020
9593.423946 84.912 5.6321
9662.941850 84.889 7.3577
9732.963510 84.892 9.0721
9803.492576 84.922 10.7650
9874.532725 84.980 12.4193
9946.087659 85.067 14.0141
10018.161110 85.184 15.5249
10090.756835 85.333 16.9225
10163.878619 85.513 18.1761
10237.530273 85.724 19.2527
10311.715638 85.964 20.1133
10386.438580 86.231 20.7168
10461.702996 86.522 21.0215
10537.512808 86.830 20.9859
10613.871970 87.147 20.5706
10690.784461 87.463 19.7451
10768.254293 87.767 18.4945
10846.285502 88.045 16.8237
10924.882158 88.286 14.7588
11004.048358 88.476 12.3527
11083.788228 88.606 9.6812
11164.105927 88.671 6.8324
11245.005640 88.670 3.8971
11326.491587 88.606 0.9586
11408.568014 88.484 -1.9180
11491.239200 88.311 -4.6940
11574.509457 88.092 -7.3596
11658.383123 87.832 -9.9275
11742.864573 87.529 -12.4196
11827.958211 87.181 -14.8450
11913.668472 86.777 -17.1784
11999.999825 86.309 -19.3466
12086.956770 85.773 -21.2366
12174.543841 85.172 -22.7271
12262.765605 84.515 -23.7178
12351.626659 83.819 -24.1329
12441.131638 83.099 -23.9193
12531.285206 82.370 -23.0448
12622.092064 81.652 -21.5079
12713.556946 80.964 -19.3430
12805.684621 80.321 -16.6163
12898.479890 79.738 -13.4143
12991.947593 79.225 -9.8365
13086.092601 78.790 -5.9895
13180.919822 78.436 -1.9821
13276.434201 78.161 2.0845
13372.640716 77.970 6.1182
13469.544383 77.878 10.0326
13567.150254 77.903 13.7452
13665.463417 78.077 17.1731
13764.488998 78.456 20.2125
13864.232160 79.134 22.7241
13964.698101 80.195 24.5329
14065.892060 81.618 25.4197
14167.819312 83.235 25.1235
14270.485171 84.837 23.3776
14373.894990 86.248 19.9805
14478.054158 87.323 14.8881
14582.968107 87.973 8.3027
14688.642305 88.179 0.7097
14795.082262 87.970 -7.1789
14902.293527 87.397 -14.5825
15010.281689 86.533 -20.8549
15119.052378 85.467 -25.6218
15228.611264 84.296 -28.7949
15338.964058 83.114 -30.5046
15450.116515 82.006 -30.9938
15562.074428 81.041 -30.4901
15674.843635 80.268 -29.1291
15788.430013 79.725 -27.0909
15902.839485 79.436 -24.8253
16018.078016 79.393 -22.8383
16134.151612 79.550 -21.4224
16251.066326 79.838 -20.7251
16368.828251 80.182 -20.8243
16487.443528 80.527 -21.6880
16606.918341 80.877 -23.2017
16727.258917 81.305 -25.5263
16848.471530 81.833 -29.5775
16970.562500 82.283 -36.4172
17093.538192 82.367 -45.8335
17217.405016 81.902 -56.3326
17342.169430 80.873 -66.1850
17467.837939 79.383 -74.1585
17594.417093 77.574 -79.6473
17721.913492 75.588 -82.5139
17850.333783 73.541 -82.9075
17979.684660 71.516 -81.0955
18109.972866 69.564 -77.2954
18241.205195 67.723 -71.5545
18373.388487 66.034 -63.6809
18506.529634 64.586 -53.3195
18640.635577 63.547 -40.7111
18775.713306 63.071 -28.0416
18911.769865 63.066 -18.5393
19048.812345 63.188 -13.1465
19186.847892 63.155 -10.2355
19325.883701 62.904 -7.7972
19465.927021 62.515 -4.8033
19606.985152 62.087 -1.2769
19749.065449 61.690 2.3132
19892.175318 61.380 5.5168
20036.322221 61.216 7.6530
