* Measurement data measured by REW V5.40 beta 105
* Source: Microphone (USB Multi-Channel Audio Device), MICROPHONE (Master Volume), L, volume: 0.500
* Format: 256k Log Swept Sine, 1 sweep at -6.0 dBFS with no timing reference
* Dated: Nov 20, 2025 10:34:23 PM
* REW Settings:
*  C-weighting compensation: Off
*  Target level: 75.0 dB
* Note: ; 
* Measurement: Random M8 L
* Smoothing: 1/24 octave
* Frequency Step: 96 ppo
* Start Frequency: 20.0 Hz
*
* Freq(Hz) SPL(dB) Phase(degrees)
19.995176 92.749 62.1483
20.140070 92.777 61.6894
20.286013 92.804 61.2314
20.433014 92.831 60.7741
20.581080 92.858 60.3177
20.730219 92.884 59.8623
20.880438 92.910 59.4077
21.031747 92.935 58.9542
21.184151 92.960 58.5016
21.337660 92.984 58.0500
21.492282 93.008 57.5995
21.648024 93.032 57.1501
21.804894 93.055 56.7017
21.962902 93.078 56.2545
22.122054 93.101 55.8083
22.282359 93.123 55.3633
22.443827 93.145 54.9193
22.606464 93.167 54.4763
22.770280 93.188 54.0344
22.935282 93.209 53.5934
23.101481 93.229 53.1534
23.268884 93.250 52.7141
23.437500 93.270 52.2756
23.607337 93.289 51.8378
23.778406 93.309 51.4006
23.950714 93.328 50.9639
24.124271 93.347 50.5276
24.299085 93.365 50.0918
24.475166 93.383 49.6562
24.652524 93.401 49.2209
24.831166 93.419 48.7859
25.011103 93.436 48.3511
25.192344 93.452 47.9166
25.374898 93.469 47.4824
25.558775 93.484 47.0486
25.743984 93.500 46.6152
25.930536 93.515 46.1825
26.118439 93.529 45.7504
26.307704 93.543 45.3192
26.498340 93.557 44.8889
26.690358 93.570 44.4599
26.883768 93.583 44.0321
27.078578 93.595 43.6057
27.274801 93.607 43.1810
27.472445 93.619 42.7578
27.671522 93.630 42.3365
27.872041 93.640 41.9169
28.074014 93.651 41.4991
28.277450 93.661 41.0832
28.482360 93.671 40.6690
28.688755 93.680 40.2566
28.896645 93.690 39.8459
29.106042 93.699 39.4367
29.316956 93.708 39.0289
29.529399 93.717 38.6225
29.743381 93.726 38.2173
29.958914 93.734 37.8132
30.176009 93.742 37.4100
30.394677 93.751 37.0077
30.614929 93.759 36.6060
30.836777 93.766 36.2051
31.060233 93.774 35.8047
31.285309 93.781 35.4048
31.512015 93.789 35.0054
31.740364 93.796 34.6063
31.970368 93.802 34.2077
32.202038 93.809 33.8094
32.435387 93.815 33.4116
32.670428 93.821 33.0141
32.907171 93.827 32.6170
33.145630 93.833 32.2203
33.385817 93.838 31.8242
33.627744 93.843 31.4286
33.871425 93.847 31.0336
34.116871 93.852 30.6393
34.364096 93.856 30.2457
34.613112 93.859 29.8529
34.863933 93.863 29.4610
35.116572 93.866 29.0701
35.371041 93.869 28.6801
35.627354 93.871 28.2911
35.885524 93.873 27.9032
36.145566 93.875 27.5162
36.407491 93.877 27.1302
36.671315 93.879 26.7452
36.937051 93.880 26.3611
37.204712 93.881 25.9780
37.474312 93.882 25.5957
37.745867 93.882 25.2144
38.019389 93.882 24.8340
38.294893 93.882 24.4547
38.572393 93.882 24.0764
38.851905 93.881 23.6992
39.133442 93.881 23.3232
39.417019 93.879 22.9485
39.702651 93.878 22.5752
39.990353 93.876 22.2031
40.280139 93.874 21.8325
40.572026 93.872 21.4634
40.866027 93.870 21.0957
41.162159 93.867 20.7294
41.460437 93.865 20.3644
41.760877 93.862 20.0007
42.063493 93.859 19.6382
42.368303 93.856 19.2768
42.675321 93.852 18.9164
42.984564 93.849 18.5568
43.296048 93.845 18.1981
43.609789 93.842 17.8400
43.925803 93.838 17.4824
44.244108 93.834 17.1253
44.564719 93.830 16.7687
44.887653 93.825 16.4125
45.212928 93.821 16.0568
45.540559 93.816 15.7016
45.870565 93.811 15.3469
46.202962 93.805 14.9928
46.537767 93.800 14.6393
46.874999 93.794 14.2865
47.214675 93.788 13.9344
47.556812 93.781 13.5832
47.901428 93.775 13.2328
48.248542 93.768 12.8835
48.598170 93.761 12.5352
48.950333 93.753 12.1881
49.305047 93.746 11.8424
49.662332 93.738 11.4980
50.022206 93.730 11.1554
50.384687 93.722 10.8143
50.749795 93.713 10.4751
51.117549 93.705 10.1376
51.487968 93.696 9.8019
51.861071 93.687 9.4678
52.236878 93.678 9.1353
52.615408 93.670 8.8041
52.996681 93.661 8.4744
53.380716 93.652 8.1459
53.767535 93.643 7.8184
54.157157 93.634 7.4919
54.549602 93.625 7.1662
54.944891 93.616 6.8411
55.343044 93.607 6.5164
55.744083 93.598 6.1920
56.148027 93.589 5.8677
56.554899 93.580 5.5436
56.964719 93.571 5.2195
57.377509 93.562 4.8953
57.793290 93.552 4.5712
58.212084 93.543 4.2469
58.633913 93.533 3.9225
59.058798 93.523 3.5981
59.486763 93.513 3.2737
59.917828 93.502 2.9492
60.352018 93.492 2.6249
60.789353 93.481 2.3009
61.229858 93.470 1.9773
61.673555 93.458 1.6543
62.120467 93.446 1.3320
62.570617 93.434 1.0106
63.024030 93.421 0.6903
63.480728 93.408 0.3713
63.940735 93.395 0.0540
64.404076 93.381 -0.2617
64.870775 93.367 -0.5753
65.340855 93.352 -0.8868
65.814342 93.338 -1.1962
66.291260 93.323 -1.5034
66.771634 93.307 -1.8085
67.255488 93.292 -2.1115
67.742849 93.276 -2.4125
68.233742 93.260 -2.7114
68.728192 93.244 -3.0082
69.226225 93.228 -3.3027
69.727866 93.211 -3.5952
70.233143 93.194 -3.8856
70.742082 93.177 -4.1743
71.254708 93.161 -4.4614
71.771049 93.144 -4.7474
72.291131 93.127 -5.0326
72.814983 93.109 -5.3171
73.342630 93.092 -5.6014
73.874101 93.075 -5.8855
74.409423 93.058 -6.1694
74.948625 93.040 -6.4534
75.491733 93.022 -6.7372
76.038777 93.004 -7.0210
76.589786 92.986 -7.3047
77.144787 92.968 -7.5884
77.703810 92.950 -7.8719
78.266884 92.931 -8.1553
78.834038 92.913 -8.4380
79.405302 92.894 -8.7200
79.980705 92.875 -9.0009
80.560278 92.855 -9.2805
81.144051 92.836 -9.5590
81.732055 92.817 -9.8361
82.324319 92.797 -10.1119
82.920875 92.778 -10.3867
83.521754 92.758 -10.6606
84.126987 92.739 -10.9340
84.736605 92.719 -11.2069
85.350642 92.699 -11.4794
85.969128 92.678 -11.7509
86.592096 92.658 -12.0206
87.219578 92.637 -12.2879
87.851607 92.616 -12.5523
88.488216 92.594 -12.8138
89.129438 92.573 -13.0729
89.775306 92.552 -13.3302
90.425855 92.530 -13.5862
91.081118 92.509 -13.8416
91.741129 92.487 -14.0961
92.405924 92.466 -14.3500
93.075535 92.444 -14.6029
93.749999 92.422 -14.8547
94.429350 92.399 -15.1053
95.113624 92.377 -15.3546
95.802856 92.354 -15.6025
96.497083 92.331 -15.8491
97.196341 92.308 -16.0945
97.900666 92.285 -16.3386
98.610094 92.262 -16.5815
99.324664 92.239 -16.8237
100.044411 92.216 -17.0650
100.769374 92.192 -17.3057
101.499591 92.169 -17.5457
102.235098 92.145 -17.7847
102.975936 92.121 -18.0225
103.722142 92.097 -18.2587
104.473756 92.072 -18.4930
105.230815 92.048 -18.7260
105.993361 92.023 -18.9575
106.761433 91.998 -19.1879
107.535070 91.973 -19.4172
108.314314 91.948 -19.6456
109.099204 91.923 -19.8728
109.889782 91.897 -20.0986
110.686088 91.871 -20.3229
111.488165 91.844 -20.5454
112.296055 91.817 -20.7661
113.109798 91.791 -20.9846
113.929438 91.763 -21.2008
114.755018 91.736 -21.4147
115.586580 91.709 -21.6266
116.424168 91.681 -21.8374
117.267826 91.653 -22.0482
118.117597 91.626 -22.2595
118.973525 91.597 -22.4711
119.835657 91.568 -22.6814
120.704035 91.539 -22.8889
121.578706 91.509 -23.0922
122.459716 91.479 -23.2908
123.347109 91.449 -23.4855
124.240933 91.418 -23.6772
125.141234 91.389 -23.8672
126.048059 91.359 -24.0559
126.961456 91.329 -24.2440
127.881471 91.299 -24.4316
128.808153 91.269 -24.6189
129.741550 91.239 -24.8055
130.681710 91.209 -24.9916
131.628684 91.179 -25.1775
132.582520 91.149 -25.3633
133.543267 91.119 -25.5487
134.510977 91.089 -25.7330
135.485699 91.058 -25.9156
136.467484 91.027 -26.0959
137.456384 90.997 -26.2740
138.452449 90.966 -26.4507
139.455733 90.935 -26.6262
140.466286 90.905 -26.8008
141.484163 90.874 -26.9745
142.509416 90.843 -27.1468
143.542098 90.812 -27.3174
144.582263 90.781 -27.4859
145.629965 90.749 -27.6522
146.685260 90.717 -27.8162
147.748202 90.685 -27.9779
148.818846 90.653 -28.1375
149.897249 90.621 -28.2948
150.983466 90.588 -28.4496
152.077555 90.555 -28.6014
153.179572 90.523 -28.7504
154.289574 90.490 -28.8968
155.407620 90.457 -29.0415
156.533767 90.424 -29.1855
157.668076 90.391 -29.3295
158.810603 90.357 -29.4728
159.961411 90.323 -29.6144
161.120557 90.289 -29.7529
162.288103 90.255 -29.8879
163.464109 90.221 -30.0200
164.648638 90.187 -30.1499
165.841750 90.153 -30.2784
167.043507 90.119 -30.4058
168.253973 90.085 -30.5320
169.473211 90.051 -30.6572
170.701284 90.017 -30.7819
171.938256 89.984 -30.9062
173.184191 89.950 -31.0297
174.439155 89.916 -31.1516
175.703213 89.881 -31.2712
176.976431 89.847 -31.3884
178.258875 89.813 -31.5029
179.550613 89.779 -31.6154
180.851710 89.745 -31.7262
182.162236 89.711 -31.8361
183.482259 89.677 -31.9449
184.811847 89.642 -32.0524
186.151070 89.608 -32.1586
187.499997 89.573 -32.2631
188.858700 89.539 -32.3661
190.227248 89.504 -32.4670
191.605713 89.468 -32.5656
192.994167 89.433 -32.6617
194.392682 89.398 -32.7561
195.801331 89.362 -32.8492
197.220189 89.326 -32.9404
198.649327 89.289 -33.0285
200.088822 89.252 -33.1129
201.538748 89.215 -33.1938
202.999181 89.178 -33.2725
204.470197 89.141 -33.3494
205.951872 89.103 -33.4242
207.444284 89.066 -33.4964
208.947511 89.028 -33.5660
210.461631 88.990 -33.6338
211.986723 88.953 -33.7009
213.522866 88.915 -33.7676
215.070141 88.877 -33.8334
216.628627 88.839 -33.8977
218.198408 88.801 -33.9600
219.779563 88.763 -34.0203
221.372177 88.725 -34.0789
222.976331 88.687 -34.1364
224.592109 88.648 -34.1925
226.219596 88.610 -34.2465
227.858877 88.572 -34.2981
229.510036 88.534 -34.3478
231.173160 88.496 -34.3962
232.848336 88.458 -34.4436
234.535651 88.419 -34.4897
236.235193 88.381 -34.5337
237.947051 88.342 -34.5746
239.671313 88.304 -34.6119
241.408071 88.266 -34.6460
243.157413 88.227 -34.6780
244.919432 88.189 -34.7087
246.694219 88.151 -34.7383
248.481867 88.112 -34.7656
250.282469 88.073 -34.7898
252.096119 88.035 -34.8112
253.922911 87.996 -34.8305
255.762941 87.957 -34.8483
257.616305 87.919 -34.8646
259.483099 87.880 -34.8797
261.363421 87.841 -34.8939
263.257368 87.802 -34.9064
265.165039 87.764 -34.9160
267.086534 87.725 -34.9221
269.021953 87.686 -34.9250
270.971397 87.647 -34.9258
272.934968 87.609 -34.9242
274.912767 87.570 -34.9200
276.904898 87.532 -34.9137
278.911465 87.493 -34.9058
280.932573 87.455 -34.8967
282.968326 87.417 -34.8866
285.018831 87.379 -34.8748
287.084195 87.340 -34.8604
289.164526 87.302 -34.8434
291.259931 87.263 -34.8239
293.370520 87.225 -34.8005
295.496404 87.186 -34.7738
297.637693 87.148 -34.7454
299.794498 87.111 -34.7169
301.966933 87.073 -34.6884
304.155110 87.035 -34.6592
306.359143 86.998 -34.6287
308.579148 86.960 -34.5962
310.815239 86.923 -34.5615
313.067535 86.886 -34.5242
315.336151 86.849 -34.4836
317.621207 86.811 -34.4392
319.922821 86.774 -34.3912
322.241114 86.737 -34.3405
324.576206 86.701 -34.2888
326.928219 86.664 -34.2374
329.297275 86.626 -34.1855
331.683499 86.589 -34.1313
334.087014 86.551 -34.0739
336.507947 86.513 -34.0136
338.946422 86.474 -33.9508
341.402567 86.436 -33.8850
343.876511 86.398 -33.8160
346.368382 86.359 -33.7438
348.878310 86.321 -33.6689
351.406426 86.282 -33.5925
353.952862 86.244 -33.5157
356.517750 86.205 -33.4384
359.101225 86.166 -33.3582
361.703421 86.127 -33.2731
364.324473 86.088 -33.1841
366.964518 86.050 -33.0942
369.623694 86.012 -33.0042
372.302140 85.974 -32.9131
374.999995 85.936 -32.8182
377.717399 85.899 -32.7186
380.454495 85.862 -32.6166
383.211425 85.825 -32.5137
385.988333 85.789 -32.4086
388.785364 85.752 -32.2997
391.602663 85.716 -32.1879
394.440377 85.680 -32.0755
397.298655 85.645 -31.9636
400.177644 85.610 -31.8515
403.077497 85.575 -31.7375
405.998362 85.541 -31.6205
408.940394 85.506 -31.4991
411.903744 85.472 -31.3730
414.888569 85.439 -31.2444
417.895022 85.406 -31.1157
420.923262 85.374 -30.9888
423.973445 85.341 -30.8634
427.045732 85.309 -30.7370
430.140281 85.276 -30.6076
433.257255 85.244 -30.4749
436.396816 85.212 -30.3393
439.559127 85.181 -30.2018
442.744354 85.150 -30.0643
445.952662 85.120 -29.9279
449.184218 85.090 -29.7924
452.439192 85.060 -29.6572
455.717753 85.030 -29.5211
459.020072 85.000 -29.3828
462.346321 84.969 -29.2422
465.696673 84.939 -29.1003
469.071303 84.909 -28.9586
472.470387 84.879 -28.8164
475.894102 84.848 -28.6724
479.342627 84.818 -28.5271
482.816141 84.788 -28.3812
486.314826 84.759 -28.2345
489.838864 84.730 -28.0875
493.388438 84.701 -27.9410
496.963734 84.671 -27.7948
500.564938 84.641 -27.6476
504.192238 84.610 -27.4984
507.845823 84.580 -27.3469
511.525883 84.549 -27.1934
515.232610 84.518 -27.0377
518.966198 84.488 -26.8802
522.726841 84.458 -26.7225
526.514735 84.428 -26.5645
530.330078 84.398 -26.4050
534.173068 84.368 -26.2435
538.043907 84.338 -26.0789
541.942795 84.308 -25.9110
545.869936 84.278 -25.7394
549.825534 84.248 -25.5641
553.809797 84.219 -25.3875
557.822931 84.190 -25.2123
561.865146 84.161 -25.0382
565.936652 84.132 -24.8593
570.037662 84.103 -24.6724
574.168390 84.075 -24.4803
578.329051 84.047 -24.2858
582.519862 84.020 -24.0905
586.741041 83.992 -23.8947
590.992808 83.964 -23.6969
595.275386 83.937 -23.4949
599.588997 83.909 -23.2863
603.933866 83.881 -23.0682
608.310219 83.853 -22.8408
612.718286 83.826 -22.6057
617.158295 83.798 -22.3647
621.630479 83.771 -22.1198
626.135069 83.745 -21.8711
630.672302 83.720 -21.6160
635.242414 83.697 -21.3508
639.845642 83.675 -21.0740
644.482227 83.656 -20.7853
649.152411 83.641 -20.4886
653.856437 83.631 -20.1924
658.594551 83.625 -19.9071
663.366998 83.625 -19.6446
668.174029 83.629 -19.4213
673.015893 83.636 -19.2554
677.892844 83.639 -19.1536
682.805135 83.636 -19.1024
687.753022 83.624 -19.0712
692.736764 83.604 -19.0271
697.756620 83.577 -18.9493
702.812853 83.548 -18.8319
707.905724 83.519 -18.6775
713.035501 83.490 -18.4933
718.202450 83.464 -18.2888
723.406841 83.440 -18.0724
728.648945 83.417 -17.8495
733.929036 83.397 -17.6219
739.247388 83.378 -17.3917
744.604279 83.362 -17.1622
749.999989 83.347 -16.9371
755.434798 83.334 -16.7194
760.908990 83.322 -16.5092
766.422850 83.311 -16.3071
771.976666 83.302 -16.1168
777.570727 83.293 -15.9403
783.205325 83.286 -15.7778
788.880754 83.280 -15.6309
794.597309 83.276 -15.5026
800.355289 83.271 -15.3971
806.154993 83.266 -15.3210
811.996725 83.259 -15.2811
817.880788 83.251 -15.2825
823.807489 83.239 -15.3305
829.777138 83.222 -15.4330
835.790045 83.195 -15.5975
841.846524 83.155 -15.8260
847.946891 83.095 -16.1100
854.091464 83.007 -16.4210
860.280562 82.886 -16.6953
866.514510 82.727 -16.8284
872.793631 82.536 -16.6862
879.118254 82.330 -16.1390
885.488707 82.133 -15.1210
891.905323 81.977 -13.6863
898.368437 81.882 -12.0048
904.878385 81.855 -10.2941
911.435507 81.886 -8.7353
918.040144 81.955 -7.4221
924.692641 82.044 -6.3663
931.393345 82.140 -5.5370
938.142606 82.234 -4.8878
944.940774 82.321 -4.3714
951.788204 82.401 -3.9501
958.685254 82.475 -3.5992
965.632282 82.542 -3.3009
972.629652 82.603 -3.0402
979.677727 82.660 -2.8062
986.776876 82.713 -2.5910
993.927468 82.763 -2.3885
1001.129876 82.808 -2.1927
1008.384476 82.851 -2.0032
1015.691645 82.892 -1.8233
1023.051766 82.931 -1.6539
1030.465221 82.969 -1.4923
1037.932396 83.005 -1.3372
1045.453682 83.039 -1.1890
1053.029471 83.072 -1.0468
1060.660156 83.103 -0.9105
1068.346137 83.134 -0.7819
1076.087813 83.164 -0.6618
1083.885589 83.194 -0.5511
1091.739871 83.223 -0.4473
1099.651068 83.251 -0.3500
1107.619593 83.279 -0.2617
1115.645861 83.306 -0.1819
1123.730291 83.332 -0.1074
1131.873304 83.358 -0.0363
1140.075325 83.382 0.0305
1148.336780 83.406 0.0887
1156.658102 83.428 0.1373
1165.039724 83.449 0.1785
1173.482082 83.469 0.2156
1181.985617 83.488 0.2503
1190.550772 83.506 0.2802
1199.177993 83.523 0.3019
1207.867731 83.538 0.3176
1216.620439 83.553 0.3315
1225.436572 83.567 0.3433
1234.316591 83.579 0.3514
1243.260957 83.591 0.3562
1252.270139 83.602 0.3590
1261.344604 83.612 0.3591
1270.484827 83.621 0.3562
1279.691284 83.629 0.3525
1288.964455 83.635 0.3500
1298.304823 83.640 0.3480
1307.712874 83.644 0.3435
1317.189101 83.646 0.3359
1326.733996 83.648 0.3287
1336.348058 83.650 0.3228
1346.031787 83.649 0.3159
1355.785688 83.648 0.3070
1365.610270 83.645 0.2987
1375.506045 83.641 0.2950
1385.473529 83.635 0.2964
1395.513241 83.630 0.3008
1405.625705 83.623 0.3074
1415.811448 83.615 0.3162
1426.071002 83.606 0.3264
1436.404900 83.596 0.3384
1446.813682 83.584 0.3522
1457.297890 83.572 0.3658
1467.858072 83.560 0.3798
1478.494776 83.546 0.3975
1489.208559 83.531 0.4198
1499.999978 83.515 0.4469
1510.869596 83.499 0.4806
1521.817980 83.483 0.5215
1532.845701 83.466 0.5665
1543.953332 83.449 0.6148
1555.141455 83.430 0.6677
1566.410651 83.410 0.7255
1577.761508 83.390 0.7866
1589.194618 83.369 0.8514
1600.710578 83.348 0.9210
1612.309986 83.326 0.9961
1623.993449 83.304 1.0774
1635.761575 83.281 1.1643
1647.614978 83.258 1.2573
1659.554275 83.235 1.3575
1671.580089 83.211 1.4640
1683.693048 83.187 1.5759
1695.893782 83.161 1.6954
1708.182927 83.135 1.8231
1720.561125 83.109 1.9564
1733.029020 83.083 2.0929
1745.587263 83.058 2.2333
1758.236508 83.032 2.3789
1770.977414 83.006 2.5308
1783.810646 82.980 2.6923
1796.736874 82.953 2.8649
1809.756770 82.927 3.0479
1822.871013 82.901 3.2401
1836.080288 82.874 3.4397
1849.385283 82.848 3.6474
1862.786691 82.821 3.8633
1876.285211 82.794 4.0844
1889.881547 82.767 4.3097
1903.576408 82.740 4.5409
1917.370507 82.713 4.7803
1931.264564 82.686 5.0291
1945.259304 82.660 5.2856
1959.355454 82.633 5.5490
1973.553752 82.607 5.8200
1987.854936 82.581 6.1008
2002.259752 82.557 6.3907
2016.768952 82.533 6.6871
2031.383291 82.510 6.9893
2046.103531 82.487 7.2985
2060.930441 82.465 7.6146
2075.864793 82.443 7.9397
2090.907365 82.422 8.2772
2106.058941 82.401 8.6261
2121.320313 82.381 8.9821
2136.692274 82.363 9.3443
2152.175627 82.345 9.7156
2167.771179 82.328 10.0967
2183.479742 82.312 10.4863
2199.302137 82.297 10.8830
2215.239187 82.283 11.2866
2231.291723 82.270 11.6971
2247.460582 82.258 12.1145
2263.746608 82.247 12.5396
2280.150649 82.237 12.9719
2296.673561 82.228 13.4125
2313.316204 82.221 13.8635
2330.079447 82.216 14.3250
2346.964163 82.212 14.7941
2363.971233 82.209 15.2686
2381.101543 82.209 15.7463
2398.355986 82.210 16.2268
2415.735463 82.214 16.7115
2433.240878 82.219 17.2021
2450.873144 82.226 17.7007
2468.633181 82.234 18.2070
2486.521915 82.245 18.7200
2504.540278 82.258 19.2380
2522.689209 82.273 19.7578
2540.969655 82.290 20.2804
2559.382568 82.310 20.8107
2577.928909 82.332 21.3470
2596.609645 82.356 21.8833
2615.425749 82.382 22.4183
2634.378202 82.410 22.9536
2653.467992 82.441 23.4906
2672.696115 82.474 24.0330
2692.063573 82.509 24.5815
2711.571376 82.546 25.1322
2731.220539 82.586 25.6790
2751.012089 82.628 26.2178
2770.947057 82.673 26.7507
2791.026482 82.721 27.2832
2811.251410 82.772 27.8167
2831.622897 82.828 28.3482
2852.142003 82.887 28.8738
2872.809800 82.949 29.3906
2893.627364 83.013 29.8971
2914.595781 83.080 30.3941
2935.716143 83.149 30.8839
2956.989553 83.222 31.3675
2978.417118 83.297 31.8430
2999.999956 83.376 32.3063
3021.739192 83.457 32.7547
3043.635960 83.542 33.1874
3065.691401 83.630 33.6038
3087.906665 83.720 34.0042
3110.282909 83.814 34.3894
3132.821301 83.909 34.7586
3155.523016 84.007 35.1093
3178.389237 84.107 35.4402
3201.421155 84.208 35.7494
3224.619973 84.312 36.0341
3247.986898 84.418 36.2964
3271.523150 84.525 36.5381
3295.229956 84.633 36.7586
3319.108550 84.743 36.9543
3343.160179 84.854 37.1214
3367.386096 84.966 37.2592
3391.787563 85.078 37.3709
3416.365854 85.190 37.4605
3441.122250 85.303 37.5273
3466.058040 85.415 37.5684
3491.174525 85.527 37.5840
3516.473015 85.638 37.5746
3541.954828 85.748 37.5399
3567.621293 85.857 37.4839
3593.473747 85.964 37.4112
3619.513539 86.070 37.3234
3645.742027 86.173 37.2208
3672.160576 86.275 37.1020
3698.770566 86.375 36.9673
3725.573382 86.473 36.8187
3752.570422 86.570 36.6570
3779.763094 86.664 36.4813
3807.152816 86.755 36.2898
3834.741015 86.841 36.0833
3862.529129 86.919 35.8746
3890.518607 86.987 35.7033
3918.710909 87.051 35.6287
3947.107503 87.122 35.6693
3975.709871 87.209 35.7546
4004.519504 87.310 35.8039
4033.537903 87.417 35.8013
4062.766581 87.527 35.7622
4092.207063 87.637 35.6992
4121.860882 87.748 35.6245
4151.729585 87.860 35.5503
4181.814729 87.974 35.4819
4212.117883 88.091 35.4188
4242.640625 88.213 35.3571
4273.384548 88.340 35.2934
4304.351254 88.474 35.2235
4335.542358 88.615 35.1418
4366.959485 88.763 35.0426
4398.604273 88.921 34.9208
4430.478373 89.087 34.7701
4462.583446 89.263 34.5811
4494.921165 89.449 34.3435
4527.493217 89.644 34.0478
4560.301299 89.850 33.6835
4593.347122 90.065 33.2387
4626.632409 90.291 32.6984
4660.158894 90.526 32.0462
4693.928327 90.769 31.2659
4727.942466 91.020 30.3407
4762.203086 91.277 29.2523
4796.711973 91.538 27.9810
4831.470925 91.799 26.5067
4866.481755 92.058 24.8114
4901.746288 92.309 22.8792
4937.266362 92.547 20.6990
4973.043830 92.766 18.2651
5009.080555 92.959 15.5814
5045.378418 93.119 12.6628
5081.939310 93.240 9.5358
5118.765137 93.316 6.2391
5155.857819 93.341 2.8245
5193.219290 93.312 -0.6492
5230.851498 93.228 -4.1204
5268.756404 93.089 -7.5249
5306.935985 92.897 -10.8010
5345.392231 92.658 -13.8947
5384.127146 92.377 -16.7628
5423.142751 92.060 -19.3736
5462.441079 91.715 -21.7074
5502.024179 91.349 -23.7551
5541.894114 90.967 -25.5168
5582.052963 90.575 -27.0006
5622.502820 90.180 -28.2214
5663.245793 89.785 -29.1971
5704.284007 89.393 -29.9449
5745.619600 89.008 -30.4822
5787.254728 88.632 -30.8274
5829.191562 88.266 -30.9982
5871.432287 87.912 -31.0118
5913.979105 87.570 -30.8849
5956.834236 87.242 -30.6306
5999.999912 86.928 -30.2600
6043.478385 86.630 -29.7852
6087.271921 86.346 -29.2169
6131.382802 86.077 -28.5648
6175.813330 85.823 -27.8400
6220.565819 85.584 -27.0520
6265.642603 85.360 -26.2089
6311.046032 85.151 -25.3181
6356.778473 84.958 -24.3851
6402.842310 84.779 -23.4155
6449.239945 84.616 -22.4156
6495.973796 84.468 -21.3940
6543.046300 84.334 -20.3599
6590.459911 84.216 -19.3170
6638.217100 84.113 -18.2698
6686.320358 84.025 -17.2253
6734.772191 83.954 -16.1938
6783.575127 83.898 -15.1887
6832.731709 83.858 -14.2183
6882.244499 83.833 -13.2865
6932.116080 83.823 -12.3968
6982.349051 83.829 -11.5587
7032.946030 83.850 -10.7874
7083.909656 83.888 -10.1006
7135.242586 83.942 -9.5126
7186.947495 84.010 -9.0353
7239.027079 84.093 -8.6863
7291.484053 84.187 -8.4879
7344.321152 84.292 -8.4642
7397.541131 84.404 -8.6364
7451.146763 84.519 -9.0232
7505.140844 84.633 -9.6407
7559.526189 84.740 -10.4985
7614.305632 84.836 -11.5997
7669.482029 84.914 -12.9436
7725.058258 84.966 -14.5219
7781.037214 84.985 -16.3165
7837.421817 84.966 -18.2980
7894.215007 84.901 -20.4237
7951.419743 84.786 -22.6418
8009.039008 84.618 -24.8920
8067.075806 84.398 -27.1082
8125.533163 84.127 -29.2266
8184.414126 83.808 -31.1918
8243.721764 83.446 -32.9579
8303.459170 83.048 -34.4880
8363.629458 82.621 -35.7545
8424.235765 82.172 -36.7416
8485.281250 81.708 -37.4456
8546.769096 81.237 -37.8722
8608.702508 80.763 -38.0345
8671.084715 80.292 -37.9475
8733.918969 79.827 -37.6227
8797.208547 79.371 -37.0732
8860.956746 78.928 -36.3174
8925.166891 78.500 -35.3724
8989.842330 78.089 -34.2531
9054.986433 77.695 -32.9770
9120.602598 77.319 -31.5619
9186.694244 76.963 -30.0209
9253.264817 76.627 -28.3662
9320.317788 76.313 -26.6151
9387.856653 76.019 -24.7784
9455.884932 75.748 -22.8574
9524.406173 75.499 -20.8563
9593.423946 75.276 -18.7891
9662.941850 75.076 -16.6691
9732.963510 74.902 -14.5082
9803.492576 74.752 -12.3077
9874.532725 74.629 -10.0703
9946.087659 74.532 -7.8062
10018.161110 74.464 -5.5342
10090.756835 74.425 -3.2722
10163.878619 74.418 -1.0284
10237.530273 74.441 1.1882
10311.715638 74.497 3.3612
10386.438580 74.588 5.4664
10461.702996 74.713 7.4824
10537.512808 74.871 9.3913
10613.871970 75.063 11.1725
10690.784461 75.290 12.8147
10768.254293 75.557 14.3113
10846.285502 75.873 15.6483
10924.882158 76.252 16.7822
11004.048358 76.712 17.5832
11083.788228 77.259 17.7582
11164.105927 77.863 16.8848
11245.005640 78.449 14.7036
11326.491587 78.947 11.3669
11408.568014 79.330 7.1746
11491.239200 79.585 2.2755
11574.509457 79.683 -3.2082
11658.383123 79.595 -9.0228
11742.864573 79.307 -14.8318
11827.958211 78.825 -20.2911
11913.668472 78.172 -25.1017
11999.999825 77.381 -29.0438
12086.956770 76.495 -31.9960
12174.543841 75.554 -33.9404
12262.765605 74.594 -34.9462
12351.626659 73.641 -35.1256
12441.131638 72.715 -34.5885
12531.285206 71.828 -33.4388
12622.092064 70.987 -31.7843
12713.556946 70.195 -29.7168
12805.684621 69.450 -27.3073
12898.479890 68.753 -24.6210
12991.947593 68.102 -21.7224
13086.092601 67.494 -18.6492
13180.919822 66.927 -15.4301
13276.434201 66.401 -12.1097
13372.640716 65.918 -8.7290
13469.544383 65.475 -5.2977
13567.150254 65.065 -1.8252
13665.463417 64.686 1.6614
13764.488998 64.334 5.1393
13864.232160 64.007 8.5879
13964.698101 63.705 11.9994
14065.892060 63.429 15.3884
14167.819312 63.181 18.7811
14270.485171 62.959 22.1661
14373.894990 62.757 25.5022
14478.054158 62.574 28.7750
14582.968107 62.412 32.0106
14688.642305 62.275 35.2301
14795.082262 62.161 38.4069
14902.293527 62.073 41.4966
15010.281689 62.018 44.4742
15119.052378 61.996 47.3365
15228.611264 62.007 50.0723
15338.964058 62.044 52.6638
15450.116515 62.106 55.1237
15562.074428 62.195 57.4526
15674.843635 62.310 59.5826
15788.430013 62.450 61.4465
15902.839485 62.610 62.9930
16018.078016 62.779 64.1625
16134.151612 62.945 64.9124
16251.066326 63.097 65.2119
16368.828251 63.224 65.0667
16487.443528 63.311 64.5387
16606.918341 63.342 63.7238
16727.258917 63.302 62.6915
16848.471530 63.181 61.5294
16970.562500 62.974 60.3743
17093.538192 62.684 59.3755
17217.405016 62.325 58.6743
17342.169430 61.911 58.4057
17467.837939 61.454 58.6382
17594.417093 60.963 59.3513
17721.913492 60.452 60.5067
17850.333783 59.939 62.0913
17979.684660 59.434 64.0988
18109.972866 58.939 66.5245
18241.205195 58.457 69.3272
18373.388487 57.996 72.4055
18506.529634 57.565 75.6821
18640.635577 57.165 79.1225
18775.713306 56.791 82.7358
18911.769865 56.446 86.5225
19048.812345 56.131 90.3917
19186.847892 55.846 94.2142
19325.883701 55.587 97.8899
19465.927021 55.349 101.3644
19606.985152 55.127 104.5538
19749.065449 54.927 107.2679
19892.175318 54.775 109.2767
20036.322221 54.699 110.3956
