* Measurement data measured by REW V5.40 beta 105
* Source: Microphone (USB Multi-Channel Audio Device), MICROPHONE (Master Volume), L, volume: 0.500
* Format: 256k Log Swept Sine, 1 sweep at -6.0 dBFS with no timing reference
* Dated: Nov 20, 2025 10:31:44 PM
* REW Settings:
*  C-weighting compensation: Off
*  Target level: 75.0 dB
* Note: ; 
* Measurement: Random M8 R
* Smoothing: 1/24 octave
* Frequency Step: 96 ppo
* Start Frequency: 20.0 Hz
*
* Freq(Hz) SPL(dB) Phase(degrees)
19.995176 92.814 -112.0888
20.140070 92.845 -112.5294
20.286013 92.876 -112.9692
20.433014 92.907 -113.4082
20.581080 92.937 -113.8463
20.730219 92.967 -114.2834
20.880438 92.996 -114.7197
21.031747 93.025 -115.1550
21.184151 93.054 -115.5893
21.337660 93.082 -116.0227
21.492282 93.110 -116.4551
21.648024 93.137 -116.8865
21.804894 93.164 -117.3169
21.962902 93.191 -117.7463
22.122054 93.217 -118.1748
22.282359 93.243 -118.6023
22.443827 93.269 -119.0290
22.606464 93.294 -119.4547
22.770280 93.319 -119.8797
22.935282 93.344 -120.3039
23.101481 93.368 -120.7273
23.268884 93.392 -121.1501
23.437500 93.416 -121.5722
23.607337 93.439 -121.9937
23.778406 93.462 -122.4146
23.950714 93.484 -122.8350
24.124271 93.507 -123.2548
24.299085 93.529 -123.6740
24.475166 93.550 -124.0926
24.652524 93.571 -124.5106
24.831166 93.592 -124.9278
25.011103 93.612 -125.3442
25.192344 93.632 -125.7597
25.374898 93.651 -126.1742
25.558775 93.670 -126.5877
25.743984 93.689 -126.9999
25.930536 93.707 -127.4109
26.118439 93.725 -127.8206
26.307704 93.742 -128.2289
26.498340 93.759 -128.6357
26.690358 93.776 -129.0411
26.883768 93.792 -129.4449
27.078578 93.808 -129.8474
27.274801 93.824 -130.2483
27.472445 93.840 -130.6479
27.671522 93.855 -131.0462
27.872041 93.870 -131.4432
28.074014 93.885 -131.8390
28.277450 93.899 -132.2336
28.482360 93.914 -132.6271
28.688755 93.928 -133.0196
28.896645 93.941 -133.4111
29.106042 93.955 -133.8017
29.316956 93.968 -134.1913
29.529399 93.981 -134.5801
29.743381 93.994 -134.9680
29.958914 94.007 -135.3550
30.176009 94.019 -135.7412
30.394677 94.031 -136.1266
30.614929 94.043 -136.5111
30.836777 94.054 -136.8947
31.060233 94.065 -137.2775
31.285309 94.076 -137.6594
31.512015 94.087 -138.0405
31.740364 94.097 -138.4206
31.970368 94.107 -138.7998
32.202038 94.117 -139.1780
32.435387 94.127 -139.5552
32.670428 94.136 -139.9315
32.907171 94.145 -140.3067
33.145630 94.154 -140.6808
33.385817 94.163 -141.0539
33.627744 94.171 -141.4259
33.871425 94.179 -141.7969
34.116871 94.187 -142.1667
34.364096 94.195 -142.5355
34.613112 94.202 -142.9032
34.863933 94.210 -143.2697
35.116572 94.217 -143.6352
35.371041 94.223 -143.9995
35.627354 94.230 -144.3627
35.885524 94.236 -144.7248
36.145566 94.243 -145.0858
36.407491 94.249 -145.4457
36.671315 94.255 -145.8047
36.937051 94.260 -146.1626
37.204712 94.266 -146.5197
37.474312 94.272 -146.8759
37.745867 94.277 -147.2315
38.019389 94.282 -147.5863
38.294893 94.287 -147.9406
38.572393 94.292 -148.2943
38.851905 94.296 -148.6474
39.133442 94.301 -149.0001
39.417019 94.305 -149.3522
39.702651 94.309 -149.7037
39.990353 94.313 -150.0546
40.280139 94.317 -150.4048
40.572026 94.320 -150.7542
40.866027 94.323 -151.1026
41.162159 94.326 -151.4501
41.460437 94.329 -151.7966
41.760877 94.331 -152.1419
42.063493 94.333 -152.4862
42.368303 94.336 -152.8294
42.675321 94.338 -153.1715
42.984564 94.339 -153.5126
43.296048 94.341 -153.8529
43.609789 94.343 -154.1922
43.925803 94.344 -154.5307
44.244108 94.345 -154.8683
44.564719 94.346 -155.2052
44.887653 94.347 -155.5412
45.212928 94.348 -155.8762
45.540559 94.348 -156.2103
45.870565 94.349 -156.5435
46.202962 94.349 -156.8756
46.537767 94.349 -157.2067
46.874999 94.349 -157.5367
47.214675 94.349 -157.8658
47.556812 94.348 -158.1938
47.901428 94.348 -158.5210
48.248542 94.348 -158.8473
48.598170 94.347 -159.1730
48.950333 94.346 -159.4980
49.305047 94.345 -159.8226
49.662332 94.345 -160.1466
50.022206 94.343 -160.4703
50.384687 94.342 -160.7934
50.749795 94.341 -161.1158
51.117549 94.339 -161.4375
51.487968 94.337 -161.7582
51.861071 94.335 -162.0777
52.236878 94.333 -162.3960
52.615408 94.331 -162.7130
52.996681 94.328 -163.0289
53.380716 94.326 -163.3436
53.767535 94.323 -163.6575
54.157157 94.320 -163.9707
54.549602 94.318 -164.2833
54.944891 94.315 -164.5956
55.343044 94.312 -164.9075
55.744083 94.309 -165.2191
56.148027 94.306 -165.5305
56.554899 94.303 -165.8417
56.964719 94.299 -166.1526
57.377509 94.296 -166.4631
57.793290 94.292 -166.7729
58.212084 94.288 -167.0820
58.633913 94.284 -167.3899
59.058798 94.279 -167.6966
59.486763 94.275 -168.0018
59.917828 94.270 -168.3055
60.352018 94.265 -168.6079
60.789353 94.261 -168.9094
61.229858 94.256 -169.2104
61.673555 94.252 -169.5116
62.120467 94.247 -169.8132
62.570617 94.242 -170.1156
63.024030 94.238 -170.4188
63.480728 94.233 -170.7224
63.940735 94.227 -171.0261
64.404076 94.222 -171.3294
64.870775 94.216 -171.6320
65.340855 94.210 -171.9336
65.814342 94.204 -172.2343
66.291260 94.197 -172.5342
66.771634 94.191 -172.8334
67.255488 94.184 -173.1320
67.742849 94.178 -173.4298
68.233742 94.171 -173.7268
68.728192 94.163 -174.0225
69.226225 94.156 -174.3169
69.727866 94.149 -174.6099
70.233143 94.142 -174.9019
70.742082 94.134 -175.1931
71.254708 94.127 -175.4840
71.771049 94.120 -175.7748
72.291131 94.113 -176.0657
72.814983 94.105 -176.3566
73.342630 94.098 -176.6475
73.874101 94.090 -176.9384
74.409423 94.082 -177.2293
74.948625 94.074 -177.5202
75.491733 94.066 -177.8109
76.038777 94.057 -178.1010
76.589786 94.049 -178.3902
77.144787 94.040 -178.6783
77.703810 94.031 -178.9651
78.266884 94.022 -179.2508
78.834038 94.013 -179.5357
79.405302 94.003 -179.8201
79.980705 93.994 179.8959
80.560278 93.985 179.6118
81.144051 93.975 179.3278
81.732055 93.966 179.0438
82.324319 93.956 178.7598
82.920875 93.946 178.4761
83.521754 93.936 178.1929
84.126987 93.926 177.9103
84.736605 93.916 177.6283
85.350642 93.905 177.3466
85.969128 93.894 177.0653
86.592096 93.884 176.7842
87.219578 93.873 176.5037
87.851607 93.862 176.2237
88.488216 93.850 175.9445
89.129438 93.839 175.6661
89.775306 93.827 175.3882
90.425855 93.816 175.1108
91.081118 93.804 174.8338
91.741129 93.792 174.5571
92.405924 93.780 174.2809
93.075535 93.768 174.0054
93.749999 93.756 173.7305
94.429350 93.743 173.4562
95.113624 93.731 173.1824
95.802856 93.718 172.9088
96.497083 93.706 172.6354
97.196341 93.693 172.3622
97.900666 93.680 172.0891
98.610094 93.667 171.8162
99.324664 93.654 171.5437
100.044411 93.640 171.2715
100.769374 93.627 170.9997
101.499591 93.613 170.7280
102.235098 93.600 170.4562
102.975936 93.586 170.1843
103.722142 93.571 169.9125
104.473756 93.557 169.6410
105.230815 93.542 169.3703
105.993361 93.527 169.1007
106.761433 93.512 168.8323
107.535070 93.497 168.5653
108.314314 93.481 168.2993
109.099204 93.466 168.0341
109.889782 93.450 167.7696
110.686088 93.434 167.5056
111.488165 93.418 167.2422
112.296055 93.402 166.9792
113.109798 93.386 166.7166
113.929438 93.370 166.4542
114.755018 93.354 166.1918
115.586580 93.337 165.9297
116.424168 93.321 165.6679
117.267826 93.304 165.4065
118.117597 93.287 165.1455
118.973525 93.270 164.8848
119.835657 93.253 164.6239
120.704035 93.236 164.3627
121.578706 93.218 164.1010
122.459716 93.200 163.8397
123.347109 93.182 163.5797
124.240933 93.163 163.3213
125.141234 93.145 163.0645
126.048059 93.126 162.8084
126.961456 93.108 162.5522
127.881471 93.089 162.2957
128.808153 93.070 162.0392
129.741550 93.050 161.7837
130.681710 93.030 161.5297
131.628684 93.011 161.2769
132.582520 92.991 161.0250
133.543267 92.971 160.7734
134.510977 92.950 160.5222
135.485699 92.930 160.2709
136.467484 92.910 160.0193
137.456384 92.889 159.7673
138.452449 92.868 159.5152
139.455733 92.846 159.2641
140.466286 92.825 159.0150
141.484163 92.803 158.7680
142.509416 92.781 158.5222
143.542098 92.760 158.2764
144.582263 92.738 158.0301
145.629965 92.716 157.7839
146.685260 92.694 157.5388
147.748202 92.671 157.2946
148.818846 92.649 157.0511
149.897249 92.626 156.8078
150.983466 92.603 156.5652
152.077555 92.580 156.3239
153.179572 92.557 156.0841
154.289574 92.533 155.8449
155.407620 92.510 155.6059
156.533767 92.486 155.3676
157.668076 92.461 155.1311
158.810603 92.437 154.8975
159.961411 92.412 154.6659
161.120557 92.387 154.4349
162.288103 92.363 154.2032
163.464109 92.338 153.9709
164.648638 92.313 153.7389
165.841750 92.287 153.5085
167.043507 92.261 153.2807
168.253973 92.235 153.0561
169.473211 92.209 152.8345
170.701284 92.183 152.6154
171.938256 92.157 152.3972
173.184191 92.132 152.1777
174.439155 92.106 151.9542
175.703213 92.081 151.7243
176.976431 92.055 151.4892
178.258875 92.027 151.2532
179.550613 91.999 151.0208
180.851710 91.970 150.7934
182.162236 91.941 150.5701
183.482259 91.912 150.3493
184.811847 91.883 150.1301
186.151070 91.854 149.9122
187.499997 91.825 149.6959
188.858700 91.796 149.4814
190.227248 91.767 149.2684
191.605713 91.738 149.0557
192.994167 91.709 148.8424
194.392682 91.679 148.6282
195.801331 91.650 148.4134
197.220189 91.620 148.1992
198.649327 91.589 147.9870
200.088822 91.558 147.7770
201.538748 91.528 147.5685
202.999181 91.496 147.3609
204.470197 91.465 147.1546
205.951872 91.434 146.9501
207.444284 91.402 146.7471
208.947511 91.370 146.5454
210.461631 91.338 146.3455
211.986723 91.306 146.1480
213.522866 91.274 145.9523
215.070141 91.242 145.7571
216.628627 91.209 145.5623
218.198408 91.176 145.3683
219.779563 91.143 145.1758
221.372177 91.109 144.9860
222.976331 91.075 144.7989
224.592109 91.042 144.6128
226.219596 91.008 144.4258
227.858877 90.974 144.2383
229.510036 90.940 144.0519
231.173160 90.906 143.8671
232.848336 90.871 143.6836
234.535651 90.836 143.5015
236.235193 90.801 143.3215
237.947051 90.766 143.1438
239.671313 90.731 142.9669
241.408071 90.696 142.7891
243.157413 90.660 142.6108
244.919432 90.623 142.4347
246.694219 90.587 142.2628
248.481867 90.550 142.0944
250.282469 90.514 141.9276
252.096119 90.477 141.7612
253.922911 90.440 141.5959
255.762941 90.404 141.4325
257.616305 90.367 141.2708
259.483099 90.329 141.1102
261.363421 90.292 140.9500
263.257368 90.254 140.7899
265.165039 90.216 140.6302
267.086534 90.178 140.4716
269.021953 90.139 140.3141
270.971397 90.100 140.1584
272.934968 90.060 140.0054
274.912767 90.021 139.8560
276.904898 89.981 139.7099
278.911465 89.942 139.5654
280.932573 89.902 139.4214
282.968326 89.863 139.2786
285.018831 89.823 139.1376
287.084195 89.783 138.9979
289.164526 89.743 138.8586
291.259931 89.703 138.7204
293.370520 89.662 138.5852
295.496404 89.621 138.4538
297.637693 89.580 138.3242
299.794498 89.538 138.1942
301.966933 89.497 138.0644
304.155110 89.455 137.9379
306.359143 89.413 137.8161
308.579148 89.371 137.6973
310.815239 89.329 137.5793
313.067535 89.287 137.4613
315.336151 89.245 137.3441
317.621207 89.203 137.2288
319.922821 89.160 137.1151
322.241114 89.117 137.0021
324.576206 89.073 136.8896
326.928219 89.029 136.7791
329.297275 88.985 136.6725
331.683499 88.941 136.5704
334.087014 88.897 136.4717
336.507947 88.853 136.3759
338.946422 88.809 136.2835
341.402567 88.765 136.1949
343.876511 88.721 136.1080
346.368382 88.677 136.0201
348.878310 88.632 135.9307
351.406426 88.587 135.8409
353.952862 88.542 135.7519
356.517750 88.496 135.6650
359.101225 88.450 135.5815
361.703421 88.404 135.5015
364.324473 88.359 135.4240
366.964518 88.313 135.3493
369.623694 88.268 135.2784
372.302140 88.222 135.2122
374.999995 88.177 135.1505
377.717399 88.131 135.0912
380.454495 88.085 135.0319
383.211425 88.040 134.9711
385.988333 87.994 134.9082
388.785364 87.947 134.8458
391.602663 87.901 134.7867
394.440377 87.855 134.7312
397.298655 87.809 134.6788
400.177644 87.762 134.6293
403.077497 87.716 134.5834
405.998362 87.669 134.5408
408.940394 87.622 134.5003
411.903744 87.575 134.4621
414.888569 87.529 134.4267
417.895022 87.482 134.3936
420.923262 87.436 134.3606
423.973445 87.390 134.3259
427.045732 87.345 134.2906
430.140281 87.299 134.2554
433.257255 87.254 134.2194
436.396816 87.208 134.1830
439.559127 87.162 134.1471
442.744354 87.115 134.1128
445.952662 87.068 134.0806
449.184218 87.020 134.0494
452.439192 86.973 134.0175
455.717753 86.925 133.9850
459.020072 86.877 133.9540
462.346321 86.828 133.9259
465.696673 86.780 133.8997
469.071303 86.731 133.8746
472.470387 86.682 133.8512
475.894102 86.633 133.8293
479.342627 86.583 133.8078
482.816141 86.533 133.7870
486.314826 86.483 133.7666
489.838864 86.432 133.7459
493.388438 86.382 133.7258
496.963734 86.330 133.7083
500.564938 86.278 133.6955
504.192238 86.225 133.6892
507.845823 86.172 133.6885
511.525883 86.118 133.6908
515.232610 86.064 133.6955
518.966198 86.010 133.7051
522.726841 85.955 133.7200
526.514735 85.901 133.7382
530.330078 85.846 133.7581
534.173068 85.791 133.7801
538.043907 85.736 133.8061
541.942795 85.681 133.8358
545.869936 85.625 133.8684
549.825534 85.570 133.9050
553.809797 85.514 133.9470
557.822931 85.459 133.9933
561.865146 85.403 134.0427
565.936652 85.348 134.0939
570.037662 85.293 134.1482
574.168390 85.237 134.2073
578.329051 85.182 134.2721
582.519862 85.126 134.3420
586.741041 85.072 134.4138
590.992808 85.017 134.4846
595.275386 84.961 134.5571
599.588997 84.905 134.6337
603.933866 84.849 134.7144
608.310219 84.793 134.7988
612.718286 84.737 134.8860
617.158295 84.681 134.9761
621.630479 84.625 135.0694
626.135069 84.569 135.1658
630.672302 84.513 135.2646
635.242414 84.457 135.3651
639.845642 84.402 135.4678
644.482227 84.347 135.5746
649.152411 84.292 135.6853
653.856437 84.237 135.7990
658.594551 84.182 135.9156
663.366998 84.127 136.0341
668.174029 84.071 136.1526
673.015893 84.016 136.2706
677.892844 83.960 136.3895
682.805135 83.905 136.5114
687.753022 83.850 136.6385
692.736764 83.795 136.7713
697.756620 83.741 136.9089
702.812853 83.688 137.0492
707.905724 83.637 137.1867
713.035501 83.587 137.3148
718.202450 83.538 137.4279
723.406841 83.490 137.5233
728.648945 83.440 137.6017
733.929036 83.390 137.6653
739.247388 83.337 137.7124
744.604279 83.282 137.7398
749.999989 83.223 137.7473
755.434798 83.160 137.7356
760.908990 83.091 137.7096
766.422850 83.015 137.6766
771.976666 82.931 137.6446
777.570727 82.837 137.6283
783.205325 82.732 137.6500
788.880754 82.619 137.7346
794.597309 82.497 137.9064
800.355289 82.373 138.1823
806.154993 82.250 138.5657
811.996725 82.132 139.0509
817.880788 82.023 139.6227
823.807489 81.927 140.2565
829.777138 81.844 140.9230
835.790045 81.774 141.5974
841.846524 81.715 142.2642
847.946891 81.666 142.9124
854.091464 81.624 143.5326
860.280562 81.587 144.1205
866.514510 81.553 144.6761
872.793631 81.522 145.2012
879.118254 81.491 145.7022
885.488707 81.461 146.1839
891.905323 81.433 146.6473
898.368437 81.407 147.0927
904.878385 81.381 147.5223
911.435507 81.356 147.9402
918.040144 81.331 148.3481
924.692641 81.306 148.7469
931.393345 81.281 149.1397
938.142606 81.255 149.5283
944.940774 81.230 149.9102
951.788204 81.204 150.2852
958.685254 81.179 150.6557
965.632282 81.154 151.0213
972.629652 81.130 151.3834
979.677727 81.106 151.7437
986.776876 81.083 152.1015
993.927468 81.060 152.4536
1001.129876 81.036 152.8008
1008.384476 81.013 153.1469
1015.691645 80.989 153.4903
1023.051766 80.966 153.8275
1030.465221 80.943 154.1561
1037.932396 80.921 154.4784
1045.453682 80.898 154.7988
1053.029471 80.875 155.1185
1060.660156 80.852 155.4346
1068.346137 80.828 155.7441
1076.087813 80.804 156.0493
1083.885589 80.780 156.3546
1091.739871 80.755 156.6586
1099.651068 80.730 156.9575
1107.619593 80.705 157.2520
1115.645861 80.680 157.5456
1123.730291 80.655 157.8418
1131.873304 80.629 158.1415
1140.075325 80.603 158.4417
1148.336780 80.576 158.7377
1156.658102 80.548 159.0283
1165.039724 80.520 159.3158
1173.482082 80.491 159.6031
1181.985617 80.461 159.8931
1190.550772 80.430 160.1865
1199.177993 80.399 160.4811
1207.867731 80.367 160.7739
1216.620439 80.334 161.0640
1225.436572 80.300 161.3561
1234.316591 80.265 161.6534
1243.260957 80.230 161.9550
1252.270139 80.193 162.2601
1261.344604 80.155 162.5716
1270.484827 80.117 162.8914
1279.691284 80.078 163.2176
1288.964455 80.040 163.5494
1298.304823 80.002 163.8875
1307.712874 79.963 164.2328
1317.189101 79.923 164.5838
1326.733996 79.881 164.9384
1336.348058 79.839 165.2982
1346.031787 79.796 165.6681
1355.785688 79.754 166.0487
1365.610270 79.712 166.4407
1375.506045 79.669 166.8444
1385.473529 79.626 167.2586
1395.513241 79.583 167.6808
1405.625705 79.540 168.1091
1415.811448 79.496 168.5460
1426.071002 79.452 168.9979
1436.404900 79.408 169.4661
1446.813682 79.365 169.9478
1457.297890 79.322 170.4396
1467.858072 79.278 170.9399
1478.494776 79.235 171.4507
1489.208559 79.193 171.9730
1499.999978 79.152 172.5035
1510.869596 79.111 173.0433
1521.817980 79.070 173.5986
1532.845701 79.030 174.1724
1543.953332 78.990 174.7645
1555.141455 78.952 175.3695
1566.410651 78.913 175.9826
1577.761508 78.876 176.6077
1589.194618 78.840 177.2491
1600.710578 78.806 177.9023
1612.309986 78.773 178.5646
1623.993449 78.742 179.2387
1635.761575 78.712 179.9263
1647.614978 78.684 -179.3701
1659.554275 78.656 -178.6505
1671.580089 78.630 -177.9192
1683.693048 78.607 -177.1780
1695.893782 78.587 -176.4249
1708.182927 78.568 -175.6568
1720.561125 78.552 -174.8756
1733.029020 78.538 -174.0829
1745.587263 78.525 -173.2781
1758.236508 78.515 -172.4585
1770.977414 78.507 -171.6232
1783.810646 78.503 -170.7749
1796.736874 78.503 -169.9169
1809.756770 78.507 -169.0501
1822.871013 78.513 -168.1769
1836.080288 78.524 -167.2961
1849.385283 78.538 -166.4040
1862.786691 78.555 -165.5025
1876.285211 78.576 -164.5952
1889.881547 78.600 -163.6812
1903.576408 78.628 -162.7606
1917.370507 78.661 -161.8381
1931.264564 78.699 -160.9171
1945.259304 78.742 -159.9965
1959.355454 78.788 -159.0738
1973.553752 78.839 -158.1496
1987.854936 78.896 -157.2265
2002.259752 78.958 -156.3073
2016.768952 79.026 -155.3978
2031.383291 79.100 -154.5043
2046.103531 79.178 -153.6275
2060.930441 79.261 -152.7626
2075.864793 79.349 -151.9072
2090.907365 79.442 -151.0625
2106.058941 79.542 -150.2342
2121.320313 79.647 -149.4271
2136.692274 79.758 -148.6446
2152.175627 79.873 -147.8940
2167.771179 79.993 -147.1832
2183.479742 80.116 -146.5140
2199.302137 80.244 -145.8838
2215.239187 80.374 -145.2896
2231.291723 80.508 -144.7334
2247.460582 80.645 -144.2193
2263.746608 80.785 -143.7475
2280.150649 80.927 -143.3194
2296.673561 81.071 -142.9420
2313.316204 81.216 -142.6201
2330.079447 81.360 -142.3535
2346.964163 81.504 -142.1426
2363.971233 81.647 -141.9831
2381.101543 81.789 -141.8691
2398.355986 81.928 -141.8035
2415.735463 82.063 -141.7915
2433.240878 82.194 -141.8297
2450.873144 82.320 -141.9092
2468.633181 82.441 -142.0246
2486.521915 82.557 -142.1728
2504.540278 82.667 -142.3483
2522.689209 82.770 -142.5459
2540.969655 82.867 -142.7654
2559.382568 82.956 -143.0028
2577.928909 83.038 -143.2477
2596.609645 83.115 -143.4938
2615.425749 83.186 -143.7439
2634.378202 83.251 -143.9990
2653.467992 83.310 -144.2524
2672.696115 83.362 -144.4966
2692.063573 83.408 -144.7237
2711.571376 83.449 -144.9284
2731.220539 83.486 -145.1093
2751.012089 83.519 -145.2693
2770.947057 83.548 -145.4095
2791.026482 83.575 -145.5264
2811.251410 83.599 -145.6153
2831.622897 83.623 -145.6726
2852.142003 83.646 -145.6994
2872.809800 83.669 -145.6976
2893.627364 83.691 -145.6674
2914.595781 83.714 -145.6099
2935.716143 83.738 -145.5270
2956.989553 83.763 -145.4224
2978.417118 83.790 -145.3001
2999.999956 83.819 -145.1595
3021.739192 83.850 -144.9984
3043.635960 83.884 -144.8205
3065.691401 83.921 -144.6309
3087.906665 83.961 -144.4348
3110.282909 84.004 -144.2366
3132.821301 84.050 -144.0360
3155.523016 84.100 -143.8317
3178.389237 84.152 -143.6263
3201.421155 84.207 -143.4262
3224.619973 84.264 -143.2336
3247.986898 84.324 -143.0481
3271.523150 84.387 -142.8708
3295.229956 84.453 -142.7044
3319.108550 84.521 -142.5494
3343.160179 84.590 -142.4060
3367.386096 84.662 -142.2766
3391.787563 84.734 -142.1643
3416.365854 84.808 -142.0690
3441.122250 84.883 -141.9884
3466.058040 84.958 -141.9234
3491.174525 85.034 -141.8754
3516.473015 85.111 -141.8439
3541.954828 85.186 -141.8295
3567.621293 85.262 -141.8344
3593.473747 85.336 -141.8577
3619.513539 85.409 -141.8937
3645.742027 85.480 -141.9374
3672.160576 85.550 -141.9886
3698.770566 85.618 -142.0466
3725.573382 85.685 -142.1092
3752.570422 85.750 -142.1749
3779.763094 85.813 -142.2412
3807.152816 85.874 -142.3051
3834.741015 85.933 -142.3652
3862.529129 85.991 -142.4205
3890.518607 86.047 -142.4691
3918.710909 86.101 -142.5068
3947.107503 86.152 -142.5271
3975.709871 86.202 -142.5208
4004.519504 86.251 -142.4757
4033.537903 86.302 -142.3792
4062.766581 86.359 -142.2369
4092.207063 86.425 -142.0804
4121.860882 86.495 -141.9372
4151.729585 86.568 -141.8080
4181.814729 86.643 -141.6804
4212.117883 86.719 -141.5419
4242.640625 86.797 -141.3858
4273.384548 86.880 -141.2118
4304.351254 86.968 -141.0227
4335.542358 87.062 -140.8211
4366.959485 87.161 -140.6098
4398.604273 87.268 -140.3922
4430.478373 87.381 -140.1715
4462.583446 87.502 -139.9514
4494.921165 87.632 -139.7358
4527.493217 87.770 -139.5288
4560.301299 87.917 -139.3346
4593.347122 88.073 -139.1584
4626.632409 88.241 -139.0079
4660.158894 88.419 -138.8912
4693.928327 88.608 -138.8142
4727.942466 88.808 -138.7838
4762.203086 89.021 -138.8089
4796.711973 89.246 -138.9007
4831.470925 89.483 -139.0735
4866.481755 89.734 -139.3427
4901.746288 89.996 -139.7237
4937.266362 90.271 -140.2333
4973.043830 90.557 -140.8909
5009.080555 90.853 -141.7182
5045.378418 91.156 -142.7388
5081.939310 91.464 -143.9761
5118.765137 91.773 -145.4524
5155.857819 92.078 -147.1885
5193.219290 92.374 -149.2024
5230.851498 92.654 -151.5046
5268.756404 92.910 -154.0963
5306.935985 93.134 -156.9689
5345.392231 93.319 -160.0994
5384.127146 93.456 -163.4503
5423.142751 93.540 -166.9702
5462.441079 93.565 -170.5959
5502.024179 93.529 -174.2550
5541.894114 93.432 -177.8719
5582.052963 93.276 178.6261
5622.502820 93.067 175.3054
5663.245793 92.809 172.2211
5704.284007 92.512 169.4127
5745.619600 92.182 166.9044
5787.254728 91.827 164.7055
5829.191562 91.456 162.8151
5871.432287 91.076 161.2248
5913.979105 90.692 159.9197
5956.834236 90.310 158.8803
5999.999912 89.933 158.0842
6043.478385 89.565 157.5080
6087.271921 89.208 157.1290
6131.382802 88.864 156.9276
6175.813330 88.535 156.8845
6220.565819 88.220 156.9803
6265.642603 87.921 157.1972
6311.046032 87.639 157.5204
6356.778473 87.373 157.9368
6402.842310 87.123 158.4350
6449.239945 86.891 159.0042
6495.973796 86.674 159.6341
6543.046300 86.475 160.3154
6590.459911 86.293 161.0378
6638.217100 86.129 161.7914
6686.320358 85.982 162.5676
6734.772191 85.852 163.3553
6783.575127 85.740 164.1448
6832.731709 85.645 164.9290
6882.244499 85.567 165.6978
6932.116080 85.506 166.4384
6982.349051 85.462 167.1399
7032.946030 85.434 167.7927
7083.909656 85.424 168.3850
7135.242586 85.430 168.9020
7186.947495 85.453 169.3248
7239.027079 85.492 169.6326
7291.484053 85.545 169.8060
7344.321152 85.611 169.8259
7397.541131 85.687 169.6710
7451.146763 85.770 169.3220
7505.140844 85.856 168.7634
7559.526189 85.941 167.9823
7614.305632 86.017 166.9695
7669.482029 86.081 165.7200
7725.058258 86.124 164.2350
7781.037214 86.141 162.5236
7837.421817 86.124 160.6076
7894.215007 86.068 158.5236
7951.419743 85.965 156.3204
8009.039008 85.813 154.0546
8067.075806 85.608 151.7869
8125.533163 85.352 149.5790
8184.414126 85.046 147.4897
8243.721764 84.694 145.5735
8303.459170 84.303 143.8763
8363.629458 83.879 142.4329
8424.235765 83.429 141.2681
8485.281250 82.960 140.3962
8546.769096 82.479 139.8170
8608.702508 81.993 139.5198
8671.084715 81.507 139.4921
8733.918969 81.028 139.7152
8797.208547 80.559 140.1689
8860.956746 80.103 140.8432
8925.166891 79.660 141.7291
8989.842330 79.234 142.8078
9054.986433 78.830 144.0564
9120.602598 78.448 145.4510
9186.694244 78.090 146.9683
9253.264817 77.756 148.5934
9320.317788 77.445 150.3097
9387.856653 77.158 152.0966
9455.884932 76.896 153.9410
9524.406173 76.656 155.8355
9593.423946 76.438 157.7756
9662.941850 76.243 159.7586
9732.963510 76.071 161.7845
9803.492576 75.924 163.8531
9874.532725 75.802 165.9604
9946.087659 75.709 168.0886
10018.161110 75.646 170.2129
10090.756835 75.614 172.3163
10163.878619 75.613 174.3886
10237.530273 75.644 176.4131
10311.715638 75.708 178.3693
10386.438580 75.806 -179.7584
10461.702996 75.936 -177.9851
10537.512808 76.101 -176.3304
10613.871970 76.303 -174.8218
10690.784461 76.547 -173.4955
10768.254293 76.835 -172.4046
10846.285502 77.170 -171.6196
10924.882158 77.552 -171.2198
11004.048358 77.978 -171.2993
11083.788228 78.444 -171.9792
11164.105927 78.938 -173.4039
11245.005640 79.440 -175.7373
11326.491587 79.911 -179.1476
11408.568014 80.289 176.2988
11491.239200 80.509 170.7635
11574.509457 80.526 164.5939
11658.383123 80.319 158.2132
11742.864573 79.890 152.0447
11827.958211 79.260 146.4585
11913.668472 78.464 141.7284
11999.999825 77.546 138.0130
12086.956770 76.553 135.3636
12174.543841 75.526 133.7481
12262.765605 74.497 133.0691
12351.626659 73.490 133.1914
12441.131638 72.519 133.9797
12531.285206 71.590 135.3185
12622.092064 70.707 137.1071
12713.556946 69.869 139.2623
12805.684621 69.076 141.7155
12898.479890 68.325 144.4160
12991.947593 67.616 147.3359
13086.092601 66.950 150.4689
13180.919822 66.322 153.7965
13276.434201 65.728 157.2946
13372.640716 65.163 160.9485
13469.544383 64.633 164.7225
13567.150254 64.138 168.5948
13665.463417 63.684 172.5826
13764.488998 63.272 176.7169
13864.232160 62.898 -179.0080
13964.698101 62.561 -174.6499
14065.892060 62.260 -170.2812
14167.819312 62.003 -165.9169
14270.485171 61.795 -161.5367
14373.894990 61.637 -157.1330
14478.054158 61.534 -152.7632
14582.968107 61.487 -148.5135
14688.642305 61.490 -144.4461
14795.082262 61.537 -140.5963
14902.293527 61.623 -136.9719
15010.281689 61.743 -133.6037
15119.052378 61.891 -130.5315
15228.611264 62.056 -127.7793
15338.964058 62.235 -125.3485
15450.116515 62.432 -123.2281
15562.074428 62.645 -121.4022
15674.843635 62.867 -119.8673
15788.430013 63.089 -118.6498
15902.839485 63.312 -117.7823
16018.078016 63.538 -117.2756
16134.151612 63.761 -117.1253
16251.066326 63.964 -117.3481
16368.828251 64.131 -117.9595
16487.443528 64.248 -118.9690
16606.918341 64.302 -120.3623
16727.258917 64.276 -122.0795
16848.471530 64.155 -124.0103
16970.562500 63.934 -125.9990
17093.538192 63.610 -127.8904
17217.405016 63.189 -129.5159
17342.169430 62.676 -130.7222
17467.837939 62.086 -131.3798
17594.417093 61.431 -131.3970
17721.913492 60.728 -130.7689
17850.333783 59.999 -129.5418
17979.684660 59.262 -127.7365
18109.972866 58.529 -125.3620
18241.205195 57.808 -122.4319
18373.388487 57.110 -119.0038
18506.529634 56.448 -115.1955
18640.635577 55.829 -111.0569
18775.713306 55.252 -106.5933
18911.769865 54.717 -101.8403
19048.812345 54.243 -96.8925
19186.847892 53.850 -91.8794
19325.883701 53.537 -86.9282
19465.927021 53.293 -82.2507
19606.985152 53.096 -78.1135
19749.065449 52.927 -74.6716
19892.175318 52.790 -72.0415
20036.322221 52.711 -70.4759
