* Measurement data measured by REW V5.40 beta 105
* Source: Microphone (USB Multi-Channel Audio Device), MICROPHONE (Master Volume), L, volume: 0.500
* Format: 256k Log Swept Sine, 1 sweep at -6.0 dBFS with no timing reference
* Dated: Nov 20, 2025 10:29:11 PM
* REW Settings:
*  C-weighting compensation: Off
*  Target level: 75.0 dB
* Note: ; 
* Measurement: Truthear Nova R Brown Damper + AET 06 Tips
* Smoothing: 1/24 octave
* Frequency Step: 96 ppo
* Start Frequency: 20.0 Hz
*
* Freq(Hz) SPL(dB) Phase(degrees)
19.995176 90.180 -140.6640
20.140070 90.194 -141.0999
20.286013 90.209 -141.5347
20.433014 90.222 -141.9686
20.581080 90.236 -142.4014
20.730219 90.249 -142.8331
20.880438 90.261 -143.2639
21.031747 90.274 -143.6936
21.184151 90.286 -144.1224
21.337660 90.297 -144.5501
21.492282 90.309 -144.9770
21.648024 90.320 -145.4029
21.804894 90.330 -145.8279
21.962902 90.341 -146.2521
22.122054 90.351 -146.6753
22.282359 90.360 -147.0977
22.443827 90.370 -147.5192
22.606464 90.379 -147.9398
22.770280 90.387 -148.3595
22.935282 90.396 -148.7783
23.101481 90.404 -149.1962
23.268884 90.411 -149.6132
23.437500 90.419 -150.0292
23.607337 90.425 -150.4443
23.778406 90.432 -150.8584
23.950714 90.438 -151.2715
24.124271 90.444 -151.6836
24.299085 90.450 -152.0948
24.475166 90.455 -152.5050
24.652524 90.460 -152.9142
24.831166 90.465 -153.3225
25.011103 90.469 -153.7299
25.192344 90.473 -154.1364
25.374898 90.476 -154.5419
25.558775 90.479 -154.9465
25.743984 90.482 -155.3502
25.930536 90.485 -155.7530
26.118439 90.487 -156.1547
26.307704 90.489 -156.5554
26.498340 90.490 -156.9551
26.690358 90.491 -157.3536
26.883768 90.492 -157.7510
27.078578 90.493 -158.1471
27.274801 90.493 -158.5419
27.472445 90.492 -158.9354
27.671522 90.492 -159.3276
27.872041 90.491 -159.7184
28.074014 90.490 -160.1079
28.277450 90.488 -160.4960
28.482360 90.486 -160.8828
28.688755 90.484 -161.2683
28.896645 90.482 -161.6526
29.106042 90.479 -162.0357
29.316956 90.476 -162.4176
29.529399 90.472 -162.7983
29.743381 90.469 -163.1778
29.958914 90.465 -163.5561
30.176009 90.461 -163.9333
30.394677 90.456 -164.3091
30.614929 90.451 -164.6837
30.836777 90.446 -165.0570
31.060233 90.440 -165.4289
31.285309 90.434 -165.7994
31.512015 90.428 -166.1685
31.740364 90.422 -166.5362
31.970368 90.415 -166.9025
32.202038 90.408 -167.2673
32.435387 90.401 -167.6308
32.670428 90.393 -167.9929
32.907171 90.386 -168.3536
33.145630 90.377 -168.7129
33.385817 90.369 -169.0709
33.627744 90.360 -169.4275
33.871425 90.351 -169.7826
34.116871 90.342 -170.1364
34.364096 90.333 -170.4887
34.613112 90.323 -170.8396
34.863933 90.313 -171.1891
35.116572 90.303 -171.5372
35.371041 90.292 -171.8839
35.627354 90.281 -172.2292
35.885524 90.270 -172.5732
36.145566 90.259 -172.9158
36.407491 90.247 -173.2570
36.671315 90.235 -173.5969
36.937051 90.223 -173.9354
37.204712 90.211 -174.2725
37.474312 90.198 -174.6082
37.745867 90.185 -174.9424
38.019389 90.172 -175.2752
38.294893 90.158 -175.6065
38.572393 90.145 -175.9362
38.851905 90.131 -176.2646
39.133442 90.116 -176.5915
39.417019 90.102 -176.9170
39.702651 90.087 -177.2413
39.990353 90.072 -177.5643
40.280139 90.057 -177.8862
40.572026 90.042 -178.2068
40.866027 90.026 -178.5263
41.162159 90.010 -178.8443
41.460437 89.993 -179.1608
41.760877 89.976 -179.4756
42.063493 89.959 -179.7883
42.368303 89.942 179.9011
42.675321 89.924 179.5929
42.984564 89.906 179.2871
43.296048 89.888 178.9838
43.609789 89.870 178.6827
43.925803 89.851 178.3837
44.244108 89.833 178.0863
44.564719 89.814 177.7903
44.887653 89.796 177.4952
45.212928 89.777 177.2009
45.540559 89.758 176.9071
45.870565 89.739 176.6138
46.202962 89.719 176.3212
46.537767 89.700 176.0294
46.874999 89.679 175.7387
47.214675 89.659 175.4496
47.556812 89.638 175.1624
47.901428 89.616 174.8773
48.248542 89.595 174.5945
48.598170 89.573 174.3141
48.950333 89.551 174.0363
49.305047 89.528 173.7609
49.662332 89.506 173.4879
50.022206 89.483 173.2172
50.384687 89.460 172.9488
50.749795 89.437 172.6823
51.117549 89.414 172.4177
51.487968 89.390 172.1545
51.861071 89.367 171.8926
52.236878 89.343 171.6317
52.615408 89.320 171.3718
52.996681 89.296 171.1129
53.380716 89.271 170.8553
53.767535 89.246 170.5996
54.157157 89.221 170.3459
54.549602 89.196 170.0946
54.944891 89.170 169.8459
55.343044 89.144 169.5999
55.744083 89.118 169.3563
56.148027 89.092 169.1151
56.554899 89.066 168.8761
56.964719 89.039 168.6392
57.377509 89.013 168.4044
57.793290 88.986 168.1713
58.212084 88.960 167.9400
58.633913 88.933 167.7101
59.058798 88.906 167.4816
59.486763 88.879 167.2542
59.917828 88.852 167.0275
60.352018 88.824 166.8017
60.789353 88.797 166.5768
61.229858 88.769 166.3529
61.673555 88.741 166.1305
62.120467 88.712 165.9100
62.570617 88.683 165.6921
63.024030 88.653 165.4771
63.480728 88.624 165.2654
63.940735 88.594 165.0569
64.404076 88.564 164.8514
64.870775 88.535 164.6484
65.340855 88.505 164.4473
65.814342 88.475 164.2472
66.291260 88.446 164.0477
66.771634 88.416 163.8486
67.255488 88.385 163.6500
67.742849 88.355 163.4525
68.233742 88.324 163.2566
68.728192 88.292 163.0630
69.226225 88.261 162.8726
69.727866 88.228 162.6857
70.233143 88.196 162.5028
70.742082 88.163 162.3242
71.254708 88.131 162.1498
71.771049 88.098 161.9794
72.291131 88.066 161.8120
72.814983 88.034 161.6466
73.342630 88.002 161.4821
73.874101 87.970 161.3174
74.409423 87.938 161.1519
74.948625 87.906 160.9861
75.491733 87.874 160.8205
76.038777 87.841 160.6564
76.589786 87.807 160.4948
77.144787 87.773 160.3364
77.703810 87.739 160.1815
78.266884 87.705 160.0300
78.834038 87.670 159.8818
79.405302 87.636 159.7367
79.980705 87.601 159.5945
80.560278 87.566 159.4551
81.144051 87.531 159.3186
81.732055 87.495 159.1849
82.324319 87.460 159.0542
82.920875 87.424 158.9268
83.521754 87.388 158.8031
84.126987 87.353 158.6834
84.736605 87.317 158.5677
85.350642 87.282 158.4553
85.969128 87.246 158.3452
86.592096 87.212 158.2361
87.219578 87.177 158.1271
87.851607 87.143 158.0176
88.488216 87.108 157.9077
89.129438 87.073 157.7979
89.775306 87.038 157.6887
90.425855 87.003 157.5806
91.081118 86.967 157.4743
91.741129 86.931 157.3703
92.405924 86.895 157.2692
93.075535 86.858 157.1713
93.749999 86.822 157.0764
94.429350 86.785 156.9844
95.113624 86.748 156.8951
95.802856 86.711 156.8085
96.497083 86.674 156.7248
97.196341 86.637 156.6440
97.900666 86.600 156.5662
98.610094 86.562 156.4911
99.324664 86.525 156.4191
100.044411 86.487 156.3505
100.769374 86.449 156.2859
101.499591 86.411 156.2253
102.235098 86.373 156.1684
102.975936 86.335 156.1145
103.722142 86.298 156.0630
104.473756 86.260 156.0139
105.230815 86.222 155.9669
105.993361 86.185 155.9219
106.761433 86.147 155.8785
107.535070 86.109 155.8363
108.314314 86.071 155.7959
109.099204 86.033 155.7581
109.889782 85.995 155.7242
110.686088 85.956 155.6951
111.488165 85.918 155.6711
112.296055 85.880 155.6512
113.109798 85.842 155.6341
113.929438 85.805 155.6176
114.755018 85.769 155.6002
115.586580 85.732 155.5814
116.424168 85.695 155.5627
117.267826 85.657 155.5458
118.117597 85.620 155.5317
118.973525 85.582 155.5201
119.835657 85.545 155.5107
120.704035 85.507 155.5040
121.578706 85.468 155.5011
122.459716 85.430 155.5029
123.347109 85.392 155.5089
124.240933 85.355 155.5177
125.141234 85.317 155.5284
126.048059 85.279 155.5411
126.961456 85.242 155.5562
127.881471 85.204 155.5739
128.808153 85.167 155.5939
129.741550 85.129 155.6165
130.681710 85.091 155.6423
131.628684 85.054 155.6719
132.582520 85.016 155.7048
133.543267 84.979 155.7400
134.510977 84.941 155.7775
135.485699 84.904 155.8181
136.467484 84.866 155.8632
137.456384 84.828 155.9131
138.452449 84.791 155.9672
139.455733 84.754 156.0243
140.466286 84.718 156.0835
141.484163 84.682 156.1443
142.509416 84.646 156.2065
143.542098 84.610 156.2695
144.582263 84.574 156.3334
145.629965 84.538 156.3983
146.685260 84.503 156.4652
147.748202 84.467 156.5351
148.818846 84.431 156.6083
149.897249 84.395 156.6848
150.983466 84.360 156.7646
152.077555 84.324 156.8481
153.179572 84.289 156.9353
154.289574 84.254 157.0259
155.407620 84.219 157.1190
156.533767 84.185 157.2139
157.668076 84.151 157.3105
158.810603 84.117 157.4088
159.961411 84.083 157.5085
161.120557 84.049 157.6104
162.288103 84.015 157.7156
163.464109 83.981 157.8250
164.648638 83.947 157.9379
165.841750 83.914 158.0532
167.043507 83.882 158.1695
168.253973 83.849 158.2862
169.473211 83.817 158.4036
170.701284 83.785 158.5234
171.938256 83.752 158.6482
173.184191 83.719 158.7803
174.439155 83.687 158.9199
175.703213 83.656 159.0632
176.976431 83.626 159.2066
178.258875 83.596 159.3498
179.550613 83.566 159.4941
180.851710 83.536 159.6396
182.162236 83.507 159.7854
183.482259 83.477 159.9323
184.811847 83.447 160.0825
186.151070 83.417 160.2368
187.499997 83.388 160.3941
188.858700 83.359 160.5531
190.227248 83.330 160.7139
191.605713 83.302 160.8776
192.994167 83.273 161.0452
194.392682 83.245 161.2160
195.801331 83.218 161.3893
197.220189 83.190 161.5663
198.649327 83.163 161.7493
200.088822 83.137 161.9385
201.538748 83.111 162.1316
202.999181 83.087 162.3253
204.470197 83.063 162.5177
205.951872 83.040 162.7098
207.444284 83.017 162.9050
208.947511 82.994 163.1048
210.461631 82.973 163.3082
211.986723 82.952 163.5129
213.522866 82.933 163.7173
215.070141 82.915 163.9196
216.628627 82.898 164.1177
218.198408 82.881 164.3109
219.779563 82.865 164.5004
221.372177 82.848 164.6894
222.976331 82.831 164.8804
224.592109 82.814 165.0744
226.219596 82.797 165.2719
227.858877 82.780 165.4721
229.510036 82.765 165.6735
231.173160 82.750 165.8737
232.848336 82.735 166.0707
234.535651 82.721 166.2638
236.235193 82.708 166.4552
237.947051 82.694 166.6481
239.671313 82.682 166.8423
241.408071 82.670 167.0353
243.157413 82.659 167.2256
244.919432 82.648 167.4123
246.694219 82.637 167.5957
248.481867 82.626 167.7771
250.282469 82.614 167.9590
252.096119 82.602 168.1426
253.922911 82.589 168.3274
255.762941 82.577 168.5132
257.616305 82.565 168.7016
259.483099 82.552 168.8932
261.363421 82.540 169.0869
263.257368 82.529 169.2807
265.165039 82.518 169.4735
267.086534 82.507 169.6659
269.021953 82.497 169.8593
270.971397 82.487 170.0539
272.934968 82.478 170.2491
274.912767 82.469 170.4445
276.904898 82.460 170.6402
278.911465 82.451 170.8374
280.932573 82.443 171.0368
282.968326 82.436 171.2368
285.018831 82.429 171.4360
287.084195 82.422 171.6340
289.164526 82.416 171.8311
291.259931 82.409 172.0267
293.370520 82.403 172.2220
295.496404 82.396 172.4199
297.637693 82.390 172.6217
299.794498 82.385 172.8250
301.966933 82.380 173.0254
304.155110 82.376 173.2212
306.359143 82.372 173.4144
308.579148 82.368 173.6079
310.815239 82.364 173.8022
313.067535 82.360 173.9966
315.336151 82.357 174.1909
317.621207 82.354 174.3864
319.922821 82.351 174.5829
322.241114 82.349 174.7786
324.576206 82.347 174.9711
326.928219 82.346 175.1599
329.297275 82.344 175.3465
331.683499 82.343 175.5317
334.087014 82.341 175.7170
336.507947 82.340 175.9032
338.946422 82.340 176.0892
341.402567 82.340 176.2739
343.876511 82.340 176.4581
346.368382 82.340 176.6426
348.878310 82.341 176.8260
351.406426 82.342 177.0073
353.952862 82.343 177.1873
356.517750 82.344 177.3671
359.101225 82.346 177.5464
361.703421 82.347 177.7245
364.324473 82.349 177.9012
366.964518 82.351 178.0770
369.623694 82.353 178.2532
372.302140 82.355 178.4297
374.999995 82.357 178.6052
377.717399 82.359 178.7795
380.454495 82.361 178.9531
383.211425 82.363 179.1256
385.988333 82.365 179.2965
388.785364 82.368 179.4665
391.602663 82.372 179.6356
394.440377 82.376 179.8019
397.298655 82.380 179.9651
400.177644 82.384 -179.8722
403.077497 82.387 -179.7072
405.998362 82.391 -179.5400
408.940394 82.394 -179.3738
411.903744 82.398 -179.2090
414.888569 82.401 -179.0431
417.895022 82.404 -178.8755
420.923262 82.408 -178.7085
423.973445 82.412 -178.5457
427.045732 82.416 -178.3879
430.140281 82.420 -178.2322
433.257255 82.424 -178.0768
436.396816 82.428 -177.9235
439.559127 82.432 -177.7723
442.744354 82.435 -177.6211
445.952662 82.439 -177.4694
449.184218 82.442 -177.3165
452.439192 82.445 -177.1603
455.717753 82.449 -177.0019
459.020072 82.452 -176.8446
462.346321 82.455 -176.6882
465.696673 82.458 -176.5300
469.071303 82.462 -176.3695
472.470387 82.465 -176.2092
475.894102 82.469 -176.0503
479.342627 82.474 -175.8932
482.816141 82.478 -175.7372
486.314826 82.481 -175.5806
489.838864 82.485 -175.4230
493.388438 82.489 -175.2639
496.963734 82.493 -175.1023
500.564938 82.497 -174.9399
504.192238 82.502 -174.7786
507.845823 82.506 -174.6191
511.525883 82.511 -174.4622
515.232610 82.515 -174.3069
518.966198 82.519 -174.1495
522.726841 82.523 -173.9881
526.514735 82.527 -173.8260
530.330078 82.532 -173.6666
534.173068 82.537 -173.5080
538.043907 82.542 -173.3465
541.942795 82.548 -173.1824
545.869936 82.553 -173.0194
549.825534 82.558 -172.8602
553.809797 82.563 -172.7049
557.822931 82.568 -172.5500
561.865146 82.572 -172.3930
565.936652 82.576 -172.2322
570.037662 82.580 -172.0668
574.168390 82.585 -171.8984
578.329051 82.590 -171.7289
582.519862 82.595 -171.5592
586.741041 82.600 -171.3892
590.992808 82.605 -171.2198
595.275386 82.609 -171.0507
599.588997 82.614 -170.8795
603.933866 82.619 -170.7054
608.310219 82.625 -170.5295
612.718286 82.630 -170.3519
617.158295 82.635 -170.1733
621.630479 82.641 -169.9940
626.135069 82.646 -169.8135
630.672302 82.651 -169.6313
635.242414 82.657 -169.4490
639.845642 82.663 -169.2667
644.482227 82.669 -169.0811
649.152411 82.674 -168.8907
653.856437 82.680 -168.6974
658.594551 82.687 -168.5037
663.366998 82.693 -168.3104
668.174029 82.699 -168.1145
673.015893 82.705 -167.9132
677.892844 82.712 -167.7079
682.805135 82.719 -167.5009
687.753022 82.726 -167.2942
692.736764 82.734 -167.0878
697.756620 82.741 -166.8792
702.812853 82.749 -166.6675
707.905724 82.758 -166.4529
713.035501 82.767 -166.2353
718.202450 82.777 -166.0144
723.406841 82.788 -165.7904
728.648945 82.799 -165.5644
733.929036 82.810 -165.3359
739.247388 82.821 -165.1039
744.604279 82.833 -164.8695
749.999989 82.846 -164.6358
755.434798 82.859 -164.4035
760.908990 82.871 -164.1698
766.422850 82.884 -163.9317
771.976666 82.898 -163.6899
777.570727 82.912 -163.4466
783.205325 82.927 -163.2016
788.880754 82.943 -162.9517
794.597309 82.960 -162.6951
800.355289 82.977 -162.4350
806.154993 82.996 -162.1757
811.996725 83.015 -161.9192
817.880788 83.034 -161.6657
823.807489 83.054 -161.4124
829.777138 83.076 -161.1567
835.790045 83.098 -160.8997
841.846524 83.121 -160.6424
847.946891 83.145 -160.3828
854.091464 83.170 -160.1185
860.280562 83.195 -159.8503
866.514510 83.222 -159.5812
872.793631 83.251 -159.3157
879.118254 83.281 -159.0558
885.488707 83.312 -158.7991
891.905323 83.344 -158.5419
898.368437 83.377 -158.2835
904.878385 83.411 -158.0264
911.435507 83.445 -157.7736
918.040144 83.480 -157.5267
924.692641 83.516 -157.2850
931.393345 83.553 -157.0470
938.142606 83.591 -156.8117
944.940774 83.631 -156.5790
951.788204 83.672 -156.3500
958.685254 83.715 -156.1259
965.632282 83.758 -155.9069
972.629652 83.802 -155.6915
979.677727 83.847 -155.4795
986.776876 83.893 -155.2741
993.927468 83.940 -155.0788
1001.129876 83.987 -154.8952
1008.384476 84.035 -154.7210
1015.691645 84.083 -154.5544
1023.051766 84.133 -154.3952
1030.465221 84.183 -154.2436
1037.932396 84.233 -154.1004
1045.453682 84.284 -153.9656
1053.029471 84.336 -153.8385
1060.660156 84.387 -153.7199
1068.346137 84.439 -153.6109
1076.087813 84.491 -153.5123
1083.885589 84.543 -153.4232
1091.739871 84.595 -153.3421
1099.651068 84.648 -153.2690
1107.619593 84.699 -153.2038
1115.645861 84.750 -153.1459
1123.730291 84.801 -153.0937
1131.873304 84.852 -153.0484
1140.075325 84.903 -153.0135
1148.336780 84.954 -152.9917
1156.658102 85.004 -152.9821
1165.039724 85.053 -152.9803
1173.482082 85.101 -152.9828
1181.985617 85.148 -152.9873
1190.550772 85.195 -152.9944
1199.177993 85.241 -153.0075
1207.867731 85.286 -153.0293
1216.620439 85.330 -153.0590
1225.436572 85.373 -153.0937
1234.316591 85.416 -153.1314
1243.260957 85.458 -153.1719
1252.270139 85.498 -153.2180
1261.344604 85.538 -153.2701
1270.484827 85.577 -153.3251
1279.691284 85.616 -153.3801
1288.964455 85.653 -153.4348
1298.304823 85.690 -153.4900
1307.712874 85.725 -153.5455
1317.189101 85.759 -153.5995
1326.733996 85.793 -153.6529
1336.348058 85.826 -153.7068
1346.031787 85.859 -153.7598
1355.785688 85.891 -153.8120
1365.610270 85.922 -153.8642
1375.506045 85.953 -153.9167
1385.473529 85.983 -153.9693
1395.513241 86.013 -154.0205
1405.625705 86.042 -154.0697
1415.811448 86.070 -154.1178
1426.071002 86.098 -154.1642
1436.404900 86.126 -154.2084
1446.813682 86.153 -154.2497
1457.297890 86.180 -154.2864
1467.858072 86.207 -154.3179
1478.494776 86.233 -154.3466
1489.208559 86.260 -154.3743
1499.999978 86.286 -154.3998
1510.869596 86.313 -154.4227
1521.817980 86.341 -154.4438
1532.845701 86.367 -154.4642
1543.953332 86.394 -154.4833
1555.141455 86.420 -154.4986
1566.410651 86.447 -154.5105
1577.761508 86.473 -154.5201
1589.194618 86.500 -154.5267
1600.710578 86.526 -154.5297
1612.309986 86.553 -154.5307
1623.993449 86.581 -154.5321
1635.761575 86.609 -154.5340
1647.614978 86.637 -154.5355
1659.554275 86.666 -154.5348
1671.580089 86.695 -154.5302
1683.693048 86.725 -154.5211
1695.893782 86.755 -154.5090
1708.182927 86.785 -154.4976
1720.561125 86.816 -154.4894
1733.029020 86.847 -154.4814
1745.587263 86.879 -154.4690
1758.236508 86.911 -154.4533
1770.977414 86.944 -154.4384
1783.810646 86.978 -154.4262
1796.736874 87.013 -154.4175
1809.756770 87.048 -154.4104
1822.871013 87.084 -154.4026
1836.080288 87.120 -154.3929
1849.385283 87.157 -154.3808
1862.786691 87.195 -154.3692
1876.285211 87.234 -154.3594
1889.881547 87.274 -154.3503
1903.576408 87.314 -154.3431
1917.370507 87.355 -154.3398
1931.264564 87.397 -154.3415
1945.259304 87.439 -154.3481
1959.355454 87.483 -154.3577
1973.553752 87.528 -154.3690
1987.854936 87.574 -154.3824
2002.259752 87.620 -154.3990
2016.768952 87.668 -154.4207
2031.383291 87.716 -154.4471
2046.103531 87.765 -154.4778
2060.930441 87.815 -154.5143
2075.864793 87.865 -154.5575
2090.907365 87.917 -154.6067
2106.058941 87.969 -154.6611
2121.320313 88.023 -154.7219
2136.692274 88.077 -154.7890
2152.175627 88.132 -154.8633
2167.771179 88.188 -154.9465
2183.479742 88.245 -155.0396
2199.302137 88.303 -155.1419
2215.239187 88.361 -155.2535
2231.291723 88.421 -155.3742
2247.460582 88.480 -155.5038
2263.746608 88.541 -155.6446
2280.150649 88.602 -155.7984
2296.673561 88.664 -155.9645
2313.316204 88.726 -156.1416
2330.079447 88.788 -156.3295
2346.964163 88.851 -156.5273
2363.971233 88.915 -156.7353
2381.101543 88.979 -156.9547
2398.355986 89.044 -157.1872
2415.735463 89.109 -157.4332
2433.240878 89.174 -157.6929
2450.873144 89.239 -157.9684
2468.633181 89.305 -158.2604
2486.521915 89.370 -158.5683
2504.540278 89.437 -158.8901
2522.689209 89.503 -159.2261
2540.969655 89.569 -159.5781
2559.382568 89.635 -159.9490
2577.928909 89.701 -160.3411
2596.609645 89.767 -160.7550
2615.425749 89.832 -161.1906
2634.378202 89.896 -161.6466
2653.467992 89.960 -162.1222
2672.696115 90.024 -162.6187
2692.063573 90.086 -163.1383
2711.571376 90.146 -163.6825
2731.220539 90.204 -164.2505
2751.012089 90.260 -164.8406
2770.947057 90.314 -165.4516
2791.026482 90.365 -166.0832
2811.251410 90.413 -166.7343
2831.622897 90.459 -167.4031
2852.142003 90.501 -168.0890
2872.809800 90.539 -168.7920
2893.627364 90.575 -169.5104
2914.595781 90.606 -170.2415
2935.716143 90.634 -170.9821
2956.989553 90.659 -171.7294
2978.417118 90.680 -172.4822
2999.999956 90.698 -173.2400
3021.739192 90.714 -174.0036
3043.635960 90.726 -174.7731
3065.691401 90.736 -175.5499
3087.906665 90.744 -176.3373
3110.282909 90.749 -177.1397
3132.821301 90.751 -177.9586
3155.523016 90.749 -178.7932
3178.389237 90.742 -179.6412
3201.421155 90.731 179.5009
3224.619973 90.713 178.6378
3247.986898 90.690 177.7745
3271.523150 90.661 176.9152
3295.229956 90.627 176.0646
3319.108550 90.588 175.2274
3343.160179 90.545 174.4062
3367.386096 90.497 173.6008
3391.787563 90.446 172.8111
3416.365854 90.391 172.0363
3441.122250 90.333 171.2753
3466.058040 90.272 170.5276
3491.174525 90.208 169.7943
3516.473015 90.142 169.0762
3541.954828 90.072 168.3738
3567.621293 90.000 167.6877
3593.473747 89.925 167.0193
3619.513539 89.847 166.3697
3645.742027 89.766 165.7391
3672.160576 89.682 165.1287
3698.770566 89.596 164.5404
3725.573382 89.507 163.9750
3752.570422 89.416 163.4333
3779.763094 89.322 162.9171
3807.152816 89.227 162.4274
3834.741015 89.130 161.9634
3862.529129 89.032 161.5255
3890.518607 88.932 161.1153
3918.710909 88.830 160.7333
3947.107503 88.728 160.3800
3975.709871 88.626 160.0575
4004.519504 88.523 159.7676
4033.537903 88.419 159.5111
4062.766581 88.315 159.2860
4092.207063 88.211 159.0905
4121.860882 88.107 158.9244
4151.729585 88.004 158.7889
4181.814729 87.903 158.6854
4212.117883 87.803 158.6125
4242.640625 87.705 158.5671
4273.384548 87.610 158.5465
4304.351254 87.517 158.5500
4335.542358 87.427 158.5779
4366.959485 87.340 158.6281
4398.604273 87.256 158.6973
4430.478373 87.175 158.7827
4462.583446 87.097 158.8828
4494.921165 87.022 158.9950
4527.493217 86.951 159.1169
4560.301299 86.882 159.2448
4593.347122 86.817 159.3745
4626.632409 86.755 159.5044
4660.158894 86.695 159.6358
4693.928327 86.637 159.7690
4727.942466 86.581 159.9021
4762.203086 86.528 160.0319
4796.711973 86.475 160.1558
4831.470925 86.425 160.2706
4866.481755 86.376 160.3726
4901.746288 86.328 160.4592
4937.266362 86.282 160.5295
4973.043830 86.236 160.5812
5009.080555 86.189 160.6088
5045.378418 86.139 160.6080
5081.939310 86.084 160.5767
5118.765137 86.022 160.5182
5155.857819 85.950 160.4446
5193.219290 85.865 160.3763
5230.851498 85.765 160.3425
5268.756404 85.650 160.3806
5306.935985 85.521 160.5325
5345.392231 85.382 160.8390
5384.127146 85.241 161.3319
5423.142751 85.105 162.0275
5462.441079 84.985 162.9186
5502.024179 84.890 163.9702
5541.894114 84.826 165.1261
5582.052963 84.795 166.3253
5622.502820 84.798 167.5091
5663.245793 84.830 168.6281
5704.284007 84.887 169.6456
5745.619600 84.965 170.5376
5787.254728 85.059 171.2888
5829.191562 85.165 171.8923
5871.432287 85.278 172.3463
5913.979105 85.397 172.6483
5956.834236 85.517 172.7975
5999.999912 85.636 172.7993
6043.478385 85.751 172.6583
6087.271921 85.859 172.3759
6131.382802 85.958 171.9533
6175.813330 86.045 171.3964
6220.565819 86.116 170.7146
6265.642603 86.170 169.9203
6311.046032 86.203 169.0286
6356.778473 86.214 168.0577
6402.842310 86.201 167.0297
6449.239945 86.160 165.9672
6495.973796 86.093 164.8945
6543.046300 85.996 163.8403
6590.459911 85.872 162.8354
6638.217100 85.722 161.9088
6686.320358 85.547 161.0856
6734.772191 85.350 160.3882
6783.575127 85.134 159.8377
6832.731709 84.903 159.4535
6882.244499 84.660 159.2479
6932.116080 84.409 159.2240
6982.349051 84.155 159.3807
7032.946030 83.899 159.7154
7083.909656 83.648 160.2229
7135.242586 83.404 160.8943
7186.947495 83.170 161.7142
7239.027079 82.949 162.6609
7291.484053 82.742 163.7103
7344.321152 82.549 164.8397
7397.541131 82.369 166.0314
7451.146763 82.199 167.2768
7505.140844 82.037 168.5851
7559.526189 81.881 169.9922
7614.305632 81.739 171.5323
7669.482029 81.618 173.1831
7725.058258 81.522 174.8825
7781.037214 81.449 176.5824
7837.421817 81.394 178.2663
7894.215007 81.357 179.9345
7951.419743 81.336 -178.4122
8009.039008 81.331 -176.7767
8067.075806 81.338 -175.1642
8125.533163 81.356 -173.5786
8184.414126 81.382 -172.0185
8243.721764 81.413 -170.4633
8303.459170 81.449 -168.8615
8363.629458 81.495 -167.1221
8424.235765 81.573 -165.1507
8485.281250 81.718 -163.0004
8546.769096 81.948 -161.0313
8608.702508 82.221 -159.6556
8671.084715 82.472 -158.8129
8733.918969 82.684 -158.0546
8797.208547 82.899 -157.0373
8860.956746 83.179 -155.8668
8925.166891 83.535 -155.0825
8989.842330 83.905 -155.0590
9054.986433 84.228 -155.6124
9120.602598 84.493 -156.3965
9186.694244 84.718 -157.2321
9253.264817 84.917 -158.0898
9320.317788 85.099 -158.9918
9387.856653 85.266 -159.9611
9455.884932 85.416 -161.0046
9524.406173 85.546 -162.1114
9593.423946 85.657 -163.2657
9662.941850 85.747 -164.4488
9732.963510 85.816 -165.6348
9803.492576 85.867 -166.7963
9874.532725 85.901 -167.9117
9946.087659 85.922 -168.9668
10018.161110 85.932 -169.9524
10090.756835 85.936 -170.8671
10163.878619 85.938 -171.7153
10237.530273 85.941 -172.5070
10311.715638 85.951 -173.2585
10386.438580 85.968 -173.9930
10461.702996 85.994 -174.7421
10537.512808 86.031 -175.5423
10613.871970 86.076 -176.4321
10690.784461 86.126 -177.4515
10768.254293 86.174 -178.6395
10846.285502 86.211 179.9775
10924.882158 86.223 178.4077
11004.048358 86.197 176.7040
11083.788228 86.128 174.9619
11164.105927 86.016 173.2891
11245.005640 85.870 171.7754
11326.491587 85.705 170.4709
11408.568014 85.540 169.3592
11491.239200 85.389 168.3436
11574.509457 85.251 167.2833
11658.383123 85.115 166.0679
11742.864573 84.958 164.6765
11827.958211 84.764 163.1764
11913.668472 84.525 161.6795
11999.999825 84.240 160.2928
12086.956770 83.918 159.0893
12174.543841 83.566 158.1041
12262.765605 83.193 157.3482
12351.626659 82.804 156.8261
12441.131638 82.406 156.5394
12531.285206 82.005 156.4825
12622.092064 81.606 156.6458
12713.556946 81.213 157.0132
12805.684621 80.831 157.5563
12898.479890 80.462 158.2377
12991.947593 80.108 159.0214
13086.092601 79.771 159.8743
13180.919822 79.448 160.7596
13276.434201 79.135 161.6416
13372.640716 78.826 162.4996
13469.544383 78.510 163.3521
13567.150254 78.182 164.2686
13665.463417 77.843 165.3515
13764.488998 77.510 166.6814
13864.232160 77.203 168.2507
13964.698101 76.940 169.9411
14065.892060 76.725 171.5882
14167.819312 76.549 173.0608
14270.485171 76.399 174.2942
14373.894990 76.260 175.2815
14478.054158 76.123 176.0396
14582.968107 75.981 176.5826
14688.642305 75.828 176.9186
14795.082262 75.657 177.0639
14902.293527 75.462 177.0449
15010.281689 75.236 176.8962
15119.052378 74.973 176.6698
15228.611264 74.670 176.4377
15338.964058 74.323 176.2813
15450.116515 73.934 176.2904
15562.074428 73.504 176.5708
15674.843635 73.048 177.2697
15788.430013 72.600 178.5302
15902.839485 72.218 -179.7088
16018.078016 71.949 -177.9457
16134.151612 71.764 -176.9346
16251.066326 71.552 -176.9156
16368.828251 71.213 -177.3288
16487.443528 70.733 -177.4511
16606.918341 70.153 -176.8882
16727.258917 69.524 -175.5586
16848.471530 68.879 -173.5124
16970.562500 68.237 -170.7892
17093.538192 67.610 -167.3302
17217.405016 67.027 -162.9556
17342.169430 66.548 -157.4948
17467.837939 66.265 -151.1893
17594.417093 66.237 -145.1299
17721.913492 66.381 -140.7154
17850.333783 66.502 -138.1582
17979.684660 66.470 -136.3579
18109.972866 66.294 -134.1702
18241.205195 66.060 -131.1106
18373.388487 65.854 -127.2801
18506.529634 65.731 -123.0654
18640.635577 65.699 -118.9089
18775.713306 65.731 -115.1586
18911.769865 65.787 -111.9579
19048.812345 65.832 -109.2322
19186.847892 65.854 -106.8384
19325.883701 65.852 -104.7138
19465.927021 65.831 -102.9157
19606.985152 65.793 -101.5528
19749.065449 65.732 -100.7163
19892.175318 65.659 -100.3620
20036.322221 65.609 -100.2914
