* Measurement data measured by REW V5.40 beta 105
* Source: Microphone (USB Multi-Channel Audio Device), MICROPHONE (Master Volume), L, volume: 0.500
* Format: 256k Log Swept Sine, 1 sweep at -6.0 dBFS with no timing reference
* Dated: Nov 20, 2025 10:22:11 PM
* REW Settings:
*  C-weighting compensation: Off
*  Target level: 75.0 dB
* Note: ; 
* Measurement: Truthear Nova L Brown Damper
* Smoothing: 1/24 octave
* Frequency Step: 96 ppo
* Start Frequency: 20.0 Hz
*
* Freq(Hz) SPL(dB) Phase(degrees)
19.995176 89.675 -141.9538
20.140070 89.689 -142.4026
20.286013 89.704 -142.8510
20.433014 89.717 -143.2990
20.581080 89.730 -143.7465
20.730219 89.743 -144.1936
20.880438 89.755 -144.6400
21.031747 89.767 -145.0857
21.184151 89.779 -145.5306
21.337660 89.789 -145.9746
21.492282 89.800 -146.4177
21.648024 89.810 -146.8597
21.804894 89.819 -147.3006
21.962902 89.828 -147.7403
22.122054 89.837 -148.1786
22.282359 89.845 -148.6157
22.443827 89.853 -149.0515
22.606464 89.860 -149.4858
22.770280 89.868 -149.9187
22.935282 89.874 -150.3502
23.101481 89.880 -150.7803
23.268884 89.886 -151.2091
23.437500 89.892 -151.6366
23.607337 89.897 -152.0627
23.778406 89.902 -152.4877
23.950714 89.907 -152.9114
24.124271 89.911 -153.3340
24.299085 89.915 -153.7555
24.475166 89.919 -154.1759
24.652524 89.922 -154.5953
24.831166 89.925 -155.0137
25.011103 89.927 -155.4311
25.192344 89.930 -155.8475
25.374898 89.931 -156.2628
25.558775 89.933 -156.6771
25.743984 89.934 -157.0903
25.930536 89.935 -157.5023
26.118439 89.935 -157.9131
26.307704 89.935 -158.3225
26.498340 89.935 -158.7306
26.690358 89.934 -159.1372
26.883768 89.933 -159.5422
27.078578 89.931 -159.9456
27.274801 89.929 -160.3472
27.472445 89.927 -160.7471
27.671522 89.925 -161.1451
27.872041 89.922 -161.5412
28.074014 89.919 -161.9355
28.277450 89.915 -162.3279
28.482360 89.911 -162.7185
28.688755 89.907 -163.1074
28.896645 89.903 -163.4945
29.106042 89.899 -163.8801
29.316956 89.894 -164.2642
29.529399 89.889 -164.6470
29.743381 89.884 -165.0285
29.958914 89.879 -165.4090
30.176009 89.874 -165.7884
30.394677 89.868 -166.1669
30.614929 89.862 -166.5446
30.836777 89.856 -166.9214
31.060233 89.849 -167.2973
31.285309 89.842 -167.6723
31.512015 89.835 -168.0465
31.740364 89.828 -168.4196
31.970368 89.820 -168.7916
32.202038 89.812 -169.1625
32.435387 89.803 -169.5322
32.670428 89.795 -169.9005
32.907171 89.785 -170.2675
33.145630 89.776 -170.6330
33.385817 89.766 -170.9971
33.627744 89.756 -171.3598
33.871425 89.745 -171.7210
34.116871 89.735 -172.0808
34.364096 89.724 -172.4392
34.613112 89.712 -172.7961
34.863933 89.700 -173.1516
35.116572 89.688 -173.5057
35.371041 89.676 -173.8582
35.627354 89.663 -174.2092
35.885524 89.650 -174.5585
36.145566 89.637 -174.9061
36.407491 89.623 -175.2518
36.671315 89.609 -175.5956
36.937051 89.595 -175.9374
37.204712 89.580 -176.2771
37.474312 89.565 -176.6147
37.745867 89.550 -176.9502
38.019389 89.534 -177.2838
38.294893 89.519 -177.6154
38.572393 89.503 -177.9452
38.851905 89.487 -178.2735
39.133442 89.471 -178.6003
39.417019 89.454 -178.9259
39.702651 89.438 -179.2505
39.990353 89.421 -179.5740
40.280139 89.404 -179.8966
40.572026 89.387 179.7817
40.866027 89.369 179.4609
41.162159 89.351 179.1414
41.460437 89.333 178.8231
41.760877 89.314 178.5062
42.063493 89.295 178.1911
42.368303 89.276 177.8778
42.675321 89.256 177.5667
42.984564 89.236 177.2576
43.296048 89.215 176.9508
43.609789 89.195 176.6462
43.925803 89.174 176.3439
44.244108 89.153 176.0436
44.564719 89.131 175.7453
44.887653 89.110 175.4487
45.212928 89.088 175.1537
45.540559 89.067 174.8603
45.870565 89.044 174.5681
46.202962 89.022 174.2773
46.537767 89.000 173.9879
46.874999 88.977 173.6999
47.214675 88.953 173.4135
47.556812 88.930 173.1289
47.901428 88.906 172.8463
48.248542 88.882 172.5658
48.598170 88.857 172.2877
48.950333 88.833 172.0121
49.305047 88.808 171.7390
49.662332 88.782 171.4683
50.022206 88.757 171.2000
50.384687 88.731 170.9341
50.749795 88.706 170.6705
51.117549 88.679 170.4092
51.487968 88.653 170.1501
51.861071 88.627 169.8932
52.236878 88.600 169.6388
52.615408 88.573 169.3870
52.996681 88.546 169.1380
53.380716 88.518 168.8921
53.767535 88.491 168.6497
54.157157 88.463 168.4106
54.549602 88.436 168.1750
54.944891 88.408 167.9424
55.343044 88.381 167.7122
55.744083 88.353 167.4838
56.148027 88.326 167.2565
56.554899 88.298 167.0300
56.964719 88.271 166.8043
57.377509 88.243 166.5797
57.793290 88.216 166.3566
58.212084 88.188 166.1356
58.633913 88.160 165.9167
59.058798 88.131 165.6995
59.486763 88.103 165.4833
59.917828 88.076 165.2674
60.352018 88.047 165.0511
60.789353 88.019 164.8341
61.229858 87.991 164.6168
61.673555 87.962 164.3995
62.120467 87.932 164.1831
62.570617 87.902 163.9682
63.024030 87.872 163.7550
63.480728 87.841 163.5438
63.940735 87.810 163.3345
64.404076 87.779 163.1274
64.870775 87.747 162.9228
65.340855 87.715 162.7208
65.814342 87.682 162.5219
66.291260 87.649 162.3263
66.771634 87.617 162.1340
67.255488 87.584 161.9449
67.742849 87.551 161.7585
68.233742 87.518 161.5746
68.728192 87.485 161.3924
69.226225 87.452 161.2117
69.727866 87.419 161.0321
70.233143 87.385 160.8537
70.742082 87.352 160.6764
71.254708 87.318 160.5003
71.771049 87.285 160.3255
72.291131 87.250 160.1523
72.814983 87.216 159.9808
73.342630 87.181 159.8112
73.874101 87.146 159.6438
74.409423 87.110 159.4791
74.948625 87.075 159.3171
75.491733 87.038 159.1582
76.038777 87.002 159.0023
76.589786 86.966 158.8491
77.144787 86.929 158.6985
77.703810 86.892 158.5505
78.266884 86.855 158.4052
78.834038 86.817 158.2628
79.405302 86.780 158.1236
79.980705 86.742 157.9876
80.560278 86.704 157.8549
81.144051 86.666 157.7252
81.732055 86.627 157.5984
82.324319 86.589 157.4742
82.920875 86.550 157.3527
83.521754 86.511 157.2342
84.126987 86.472 157.1189
84.736605 86.433 157.0073
85.350642 86.393 156.8997
85.969128 86.354 156.7964
86.592096 86.314 156.6972
87.219578 86.274 156.6022
87.851607 86.235 156.5110
88.488216 86.195 156.4237
89.129438 86.156 156.3401
89.775306 86.116 156.2606
90.425855 86.077 156.1848
91.081118 86.038 156.1124
91.741129 85.999 156.0428
92.405924 85.961 155.9751
93.075535 85.923 155.9085
93.749999 85.885 155.8425
94.429350 85.847 155.7770
95.113624 85.809 155.7126
95.802856 85.771 155.6501
96.497083 85.732 155.5906
97.196341 85.694 155.5349
97.900666 85.655 155.4833
98.610094 85.617 155.4351
99.324664 85.579 155.3891
100.044411 85.542 155.3440
100.769374 85.505 155.2984
101.499591 85.468 155.2518
102.235098 85.431 155.2039
102.975936 85.394 155.1547
103.722142 85.357 155.1044
104.473756 85.319 155.0532
105.230815 85.281 155.0014
105.993361 85.242 154.9499
106.761433 85.203 154.8996
107.535070 85.163 154.8519
108.314314 85.122 154.8079
109.099204 85.081 154.7681
109.889782 85.039 154.7322
110.686088 84.997 154.7000
111.488165 84.955 154.6708
112.296055 84.912 154.6445
113.109798 84.868 154.6213
113.929438 84.824 154.6017
114.755018 84.779 154.5869
115.586580 84.733 154.5782
116.424168 84.687 154.5775
117.267826 84.640 154.5854
118.117597 84.593 154.6022
118.973525 84.545 154.6272
119.835657 84.498 154.6588
120.704035 84.451 154.6957
121.578706 84.404 154.7376
122.459716 84.356 154.7854
123.347109 84.307 154.8415
124.240933 84.258 154.9087
125.141234 84.209 154.9891
126.048059 84.159 155.0844
126.961456 84.110 155.1954
127.881471 84.062 155.3221
128.808153 84.016 155.4631
129.741550 83.971 155.6162
130.681710 83.927 155.7789
131.628684 83.885 155.9489
132.582520 83.845 156.1243
133.543267 83.807 156.3029
134.510977 83.769 156.4829
135.485699 83.732 156.6642
136.467484 83.695 156.8498
137.456384 83.657 157.0445
138.452449 83.620 157.2544
139.455733 83.582 157.4850
140.466286 83.546 157.7422
141.484163 83.511 158.0317
142.509416 83.481 158.3567
143.542098 83.458 158.7141
144.582263 83.443 159.0918
145.629965 83.439 159.4713
146.685260 83.446 159.8314
147.748202 83.463 160.1511
148.818846 83.488 160.4112
149.897249 83.519 160.5959
150.983466 83.553 160.6970
152.077555 83.585 160.7151
153.179572 83.613 160.6595
154.289574 83.634 160.5447
155.407620 83.646 160.3888
156.533767 83.649 160.2111
157.668076 83.644 160.0289
158.810603 83.631 159.8541
159.961411 83.612 159.6932
161.120557 83.587 159.5500
162.288103 83.558 159.4276
163.464109 83.526 159.3277
164.648638 83.490 159.2507
165.841750 83.454 159.1952
167.043507 83.416 159.1590
168.253973 83.377 159.1414
169.473211 83.337 159.1431
170.701284 83.297 159.1646
171.938256 83.258 159.2044
173.184191 83.219 159.2596
174.439155 83.182 159.3278
175.703213 83.146 159.4076
176.976431 83.112 159.4973
178.258875 83.079 159.5925
179.550613 83.048 159.6882
180.851710 83.019 159.7811
182.162236 82.990 159.8705
183.482259 82.961 159.9573
184.811847 82.932 160.0428
186.151070 82.903 160.1281
187.499997 82.874 160.2132
188.858700 82.844 160.2988
190.227248 82.814 160.3867
191.605713 82.783 160.4789
192.994167 82.752 160.5764
194.392682 82.721 160.6786
195.801331 82.690 160.7855
197.220189 82.658 160.8980
198.649327 82.627 161.0171
200.088822 82.595 161.1428
201.538748 82.565 161.2740
202.999181 82.534 161.4089
204.470197 82.504 161.5463
205.951872 82.475 161.6860
207.444284 82.445 161.8290
208.947511 82.415 161.9777
210.461631 82.385 162.1339
211.986723 82.356 162.2976
213.522866 82.327 162.4662
215.070141 82.300 162.6367
216.628627 82.273 162.8071
218.198408 82.246 162.9775
219.779563 82.220 163.1501
221.372177 82.193 163.3275
222.976331 82.167 163.5106
224.592109 82.141 163.6987
226.219596 82.116 163.8915
227.858877 82.091 164.0884
229.510036 82.067 164.2890
231.173160 82.044 164.4933
232.848336 82.021 164.7018
234.535651 81.998 164.9155
236.235193 81.976 165.1350
237.947051 81.955 165.3614
239.671313 81.934 165.5960
241.408071 81.915 165.8408
243.157413 81.897 166.0960
244.919432 81.881 166.3604
246.694219 81.867 166.6306
248.481867 81.856 166.9033
250.282469 81.848 167.1763
252.096119 81.843 167.4465
253.922911 81.840 167.7076
255.762941 81.841 167.9527
257.616305 81.844 168.1761
259.483099 81.848 168.3748
261.363421 81.851 168.5506
263.257368 81.854 168.7085
265.165039 81.856 168.8528
267.086534 81.857 168.9853
269.021953 81.856 169.1073
270.971397 81.854 169.2212
272.934968 81.850 169.3298
274.912767 81.844 169.4369
276.904898 81.835 169.5462
278.911465 81.826 169.6608
280.932573 81.815 169.7823
282.968326 81.804 169.9106
285.018831 81.792 170.0453
287.084195 81.781 170.1852
289.164526 81.770 170.3295
291.259931 81.760 170.4770
293.370520 81.749 170.6272
295.496404 81.738 170.7805
297.637693 81.727 170.9384
299.794498 81.716 171.1018
301.966933 81.705 171.2700
304.155110 81.695 171.4402
306.359143 81.686 171.6101
308.579148 81.677 171.7789
310.815239 81.668 171.9469
313.067535 81.659 172.1151
315.336151 81.651 172.2852
317.621207 81.642 172.4589
319.922821 81.634 172.6345
322.241114 81.627 172.8110
324.576206 81.619 172.9896
326.928219 81.613 173.1710
329.297275 81.607 173.3534
331.683499 81.603 173.5328
334.087014 81.598 173.7081
336.507947 81.594 173.8804
338.946422 81.590 174.0499
341.402567 81.586 174.2167
343.876511 81.582 174.3819
346.368382 81.577 174.5482
348.878310 81.573 174.7183
351.406426 81.570 174.8929
353.952862 81.567 175.0698
356.517750 81.565 175.2457
359.101225 81.562 175.4189
361.703421 81.560 175.5909
364.324473 81.557 175.7641
366.964518 81.555 175.9380
369.623694 81.552 176.1111
372.302140 81.550 176.2825
374.999995 81.548 176.4516
377.717399 81.546 176.6186
380.454495 81.544 176.7849
383.211425 81.543 176.9520
385.988333 81.542 177.1194
388.785364 81.541 177.2849
391.602663 81.541 177.4471
394.440377 81.541 177.6072
397.298655 81.541 177.7670
400.177644 81.541 177.9275
403.077497 81.542 178.0892
405.998362 81.542 178.2517
408.940394 81.543 178.4136
411.903744 81.543 178.5743
414.888569 81.543 178.7347
417.895022 81.543 178.8948
420.923262 81.543 179.0537
423.973445 81.544 179.2114
427.045732 81.544 179.3681
430.140281 81.545 179.5250
433.257255 81.546 179.6826
436.396816 81.546 179.8395
439.559127 81.547 179.9970
442.744354 81.548 -179.8445
445.952662 81.549 -179.6889
449.184218 81.551 -179.5400
452.439192 81.551 -179.3944
455.717753 81.552 -179.2453
459.020072 81.552 -179.0896
462.346321 81.553 -178.9294
465.696673 81.554 -178.7690
469.071303 81.556 -178.6096
472.470387 81.557 -178.4499
475.894102 81.559 -178.2919
479.342627 81.560 -178.1378
482.816141 81.562 -177.9862
486.314826 81.563 -177.8346
489.838864 81.564 -177.6811
493.388438 81.564 -177.5248
496.963734 81.565 -177.3668
500.564938 81.567 -177.2087
504.192238 81.568 -177.0528
507.845823 81.570 -176.8998
511.525883 81.572 -176.7470
515.232610 81.574 -176.5917
518.966198 81.576 -176.4359
522.726841 81.578 -176.2808
526.514735 81.579 -176.1246
530.330078 81.581 -175.9657
534.173068 81.582 -175.8033
538.043907 81.584 -175.6402
541.942795 81.587 -175.4800
545.869936 81.589 -175.3231
549.825534 81.591 -175.1676
553.809797 81.592 -175.0108
557.822931 81.594 -174.8500
561.865146 81.597 -174.6854
565.936652 81.599 -174.5201
570.037662 81.601 -174.3541
574.168390 81.604 -174.1877
578.329051 81.606 -174.0240
582.519862 81.608 -173.8635
586.741041 81.610 -173.6996
590.992808 81.612 -173.5266
595.275386 81.614 -173.3465
599.588997 81.617 -173.1651
603.933866 81.620 -172.9863
608.310219 81.622 -172.8106
612.718286 81.625 -172.6360
617.158295 81.628 -172.4596
621.630479 81.630 -172.2787
626.135069 81.633 -172.0934
630.672302 81.636 -171.9059
635.242414 81.640 -171.7187
639.845642 81.643 -171.5340
644.482227 81.647 -171.3515
649.152411 81.651 -171.1684
653.856437 81.655 -170.9832
658.594551 81.659 -170.7962
663.366998 81.663 -170.6064
668.174029 81.667 -170.4113
673.015893 81.672 -170.2110
677.892844 81.677 -170.0087
682.805135 81.682 -169.8076
687.753022 81.688 -169.6074
692.736764 81.693 -169.4064
697.756620 81.699 -169.2019
702.812853 81.706 -168.9913
707.905724 81.712 -168.7754
713.035501 81.719 -168.5565
718.202450 81.726 -168.3358
723.406841 81.732 -168.1140
728.648945 81.739 -167.8928
733.929036 81.747 -167.6726
739.247388 81.754 -167.4525
744.604279 81.763 -167.2310
749.999989 81.772 -167.0057
755.434798 81.782 -166.7756
760.908990 81.793 -166.5412
766.422850 81.804 -166.3038
771.976666 81.817 -166.0650
777.570727 81.829 -165.8238
783.205325 81.842 -165.5808
788.880754 81.855 -165.3383
794.597309 81.869 -165.0966
800.355289 81.884 -164.8517
806.154993 81.899 -164.6024
811.996725 81.915 -164.3517
817.880788 81.932 -164.1005
823.807489 81.949 -163.8484
829.777138 81.967 -163.5947
835.790045 81.986 -163.3398
841.846524 82.007 -163.0858
847.946891 82.028 -162.8347
854.091464 82.051 -162.5866
860.280562 82.073 -162.3387
866.514510 82.097 -162.0877
872.793631 82.121 -161.8336
879.118254 82.146 -161.5798
885.488707 82.173 -161.3300
891.905323 82.200 -161.0852
898.368437 82.228 -160.8432
904.878385 82.257 -160.6020
911.435507 82.287 -160.3619
918.040144 82.319 -160.1245
924.692641 82.351 -159.8891
931.393345 82.384 -159.6551
938.142606 82.418 -159.4252
944.940774 82.453 -159.2033
951.788204 82.489 -158.9893
958.685254 82.525 -158.7787
965.632282 82.562 -158.5682
972.629652 82.600 -158.3590
979.677727 82.639 -158.1540
986.776876 82.679 -157.9551
993.927468 82.720 -157.7632
1001.129876 82.761 -157.5789
1008.384476 82.804 -157.4052
1015.691645 82.847 -157.2430
1023.051766 82.890 -157.0897
1030.465221 82.933 -156.9438
1037.932396 82.976 -156.8057
1045.453682 83.020 -156.6754
1053.029471 83.063 -156.5530
1060.660156 83.107 -156.4371
1068.346137 83.150 -156.3266
1076.087813 83.195 -156.2219
1083.885589 83.239 -156.1243
1091.739871 83.283 -156.0361
1099.651068 83.326 -155.9572
1107.619593 83.370 -155.8840
1115.645861 83.413 -155.8134
1123.730291 83.456 -155.7470
1131.873304 83.499 -155.6868
1140.075325 83.542 -155.6343
1148.336780 83.583 -155.5927
1156.658102 83.624 -155.5627
1165.039724 83.664 -155.5401
1173.482082 83.704 -155.5208
1181.985617 83.743 -155.5048
1190.550772 83.781 -155.4931
1199.177993 83.819 -155.4844
1207.867731 83.857 -155.4766
1216.620439 83.893 -155.4707
1225.436572 83.929 -155.4690
1234.316591 83.964 -155.4722
1243.260957 83.999 -155.4791
1252.270139 84.032 -155.4886
1261.344604 84.065 -155.5013
1270.484827 84.097 -155.5157
1279.691284 84.128 -155.5294
1288.964455 84.158 -155.5419
1298.304823 84.188 -155.5523
1307.712874 84.217 -155.5614
1317.189101 84.245 -155.5712
1326.733996 84.273 -155.5812
1336.348058 84.300 -155.5905
1346.031787 84.327 -155.5989
1355.785688 84.353 -155.6042
1365.610270 84.379 -155.6056
1375.506045 84.404 -155.6043
1385.473529 84.428 -155.6035
1395.513241 84.452 -155.6038
1405.625705 84.476 -155.6027
1415.811448 84.500 -155.5981
1426.071002 84.523 -155.5885
1436.404900 84.546 -155.5742
1446.813682 84.568 -155.5572
1457.297890 84.590 -155.5385
1467.858072 84.613 -155.5182
1478.494776 84.636 -155.4965
1489.208559 84.659 -155.4731
1499.999978 84.682 -155.4476
1510.869596 84.704 -155.4180
1521.817980 84.727 -155.3825
1532.845701 84.750 -155.3425
1543.953332 84.773 -155.3004
1555.141455 84.796 -155.2560
1566.410651 84.819 -155.2092
1577.761508 84.842 -155.1604
1589.194618 84.866 -155.1097
1600.710578 84.891 -155.0586
1612.309986 84.916 -155.0072
1623.993449 84.941 -154.9539
1635.761575 84.966 -154.8961
1647.614978 84.990 -154.8339
1659.554275 85.016 -154.7684
1671.580089 85.042 -154.7009
1683.693048 85.070 -154.6321
1695.893782 85.099 -154.5635
1708.182927 85.129 -154.4958
1720.561125 85.159 -154.4269
1733.029020 85.190 -154.3549
1745.587263 85.220 -154.2807
1758.236508 85.251 -154.2052
1770.977414 85.282 -154.1298
1783.810646 85.315 -154.0556
1796.736874 85.348 -153.9837
1809.756770 85.382 -153.9132
1822.871013 85.417 -153.8427
1836.080288 85.453 -153.7724
1849.385283 85.489 -153.7017
1862.786691 85.527 -153.6285
1876.285211 85.565 -153.5533
1889.881547 85.605 -153.4797
1903.576408 85.646 -153.4107
1917.370507 85.688 -153.3473
1931.264564 85.730 -153.2903
1945.259304 85.773 -153.2401
1959.355454 85.817 -153.1950
1973.553752 85.861 -153.1520
1987.854936 85.906 -153.1104
2002.259752 85.951 -153.0704
2016.768952 85.998 -153.0325
2031.383291 86.046 -152.9994
2046.103531 86.094 -152.9714
2060.930441 86.143 -152.9479
2075.864793 86.193 -152.9291
2090.907365 86.243 -152.9159
2106.058941 86.294 -152.9086
2121.320313 86.347 -152.9075
2136.692274 86.400 -152.9120
2152.175627 86.454 -152.9207
2167.771179 86.508 -152.9360
2183.479742 86.563 -152.9596
2199.302137 86.619 -152.9899
2215.239187 86.676 -153.0252
2231.291723 86.733 -153.0650
2247.460582 86.790 -153.1096
2263.746608 86.848 -153.1611
2280.150649 86.906 -153.2209
2296.673561 86.965 -153.2883
2313.316204 87.024 -153.3615
2330.079447 87.084 -153.4377
2346.964163 87.144 -153.5147
2363.971233 87.205 -153.5901
2381.101543 87.267 -153.6641
2398.355986 87.330 -153.7373
2415.735463 87.394 -153.8084
2433.240878 87.462 -153.8760
2450.873144 87.533 -153.9432
2468.633181 87.609 -154.0163
2486.521915 87.691 -154.1029
2504.540278 87.778 -154.2129
2522.689209 87.871 -154.3595
2540.969655 87.968 -154.5547
2559.382568 88.068 -154.8086
2577.928909 88.168 -155.1254
2596.609645 88.267 -155.5016
2615.425749 88.362 -155.9289
2634.378202 88.452 -156.3990
2653.467992 88.537 -156.9048
2672.696115 88.617 -157.4387
2692.063573 88.693 -157.9932
2711.571376 88.764 -158.5635
2731.220539 88.831 -159.1484
2751.012089 88.896 -159.7487
2770.947057 88.958 -160.3646
2791.026482 89.017 -160.9934
2811.251410 89.073 -161.6339
2831.622897 89.126 -162.2882
2852.142003 89.176 -162.9568
2872.809800 89.223 -163.6389
2893.627364 89.267 -164.3330
2914.595781 89.308 -165.0387
2935.716143 89.346 -165.7576
2956.989553 89.380 -166.4900
2978.417118 89.412 -167.2354
2999.999956 89.440 -167.9927
3021.739192 89.464 -168.7631
3043.635960 89.484 -169.5481
3065.691401 89.500 -170.3468
3087.906665 89.511 -171.1562
3110.282909 89.517 -171.9748
3132.821301 89.518 -172.8015
3155.523016 89.513 -173.6351
3178.389237 89.503 -174.4707
3201.421155 89.487 -175.3026
3224.619973 89.466 -176.1279
3247.986898 89.439 -176.9449
3271.523150 89.407 -177.7505
3295.229956 89.369 -178.5394
3319.108550 89.327 -179.3076
3343.160179 89.281 179.9472
3367.386096 89.230 179.2265
3391.787563 89.175 178.5308
3416.365854 89.118 177.8608
3441.122250 89.057 177.2169
3466.058040 88.995 176.5981
3491.174525 88.932 176.0027
3516.473015 88.867 175.4288
3541.954828 88.801 174.8754
3567.621293 88.734 174.3430
3593.473747 88.665 173.8304
3619.513539 88.595 173.3344
3645.742027 88.523 172.8534
3672.160576 88.450 172.3900
3698.770566 88.375 171.9471
3725.573382 88.298 171.5260
3752.570422 88.220 171.1274
3779.763094 88.140 170.7518
3807.152816 88.059 170.4020
3834.741015 87.977 170.0818
3862.529129 87.893 169.7901
3890.518607 87.809 169.5261
3918.710909 87.725 169.2924
3947.107503 87.641 169.0924
3975.709871 87.557 168.9255
4004.519504 87.476 168.7865
4033.537903 87.396 168.6731
4062.766581 87.318 168.5878
4092.207063 87.241 168.5302
4121.860882 87.167 168.4978
4151.729585 87.096 168.4860
4181.814729 87.027 168.4905
4212.117883 86.961 168.5095
4242.640625 86.897 168.5404
4273.384548 86.836 168.5779
4304.351254 86.778 168.6162
4335.542358 86.720 168.6509
4366.959485 86.663 168.6843
4398.604273 86.607 168.7220
4430.478373 86.549 168.7682
4462.583446 86.490 168.8271
4494.921165 86.430 168.9055
4527.493217 86.367 169.0120
4560.301299 86.304 169.1560
4593.347122 86.242 169.3425
4626.632409 86.182 169.5713
4660.158894 86.126 169.8395
4693.928327 86.075 170.1415
4727.942466 86.030 170.4697
4762.203086 85.991 170.8147
4796.711973 85.958 171.1684
4831.470925 85.931 171.5260
4866.481755 85.909 171.8846
4901.746288 85.891 172.2410
4937.266362 85.878 172.5914
4973.043830 85.868 172.9340
5009.080555 85.861 173.2711
5045.378418 85.858 173.6064
5081.939310 85.856 173.9412
5118.765137 85.858 174.2746
5155.857819 85.861 174.6081
5193.219290 85.867 174.9435
5230.851498 85.875 175.2818
5268.756404 85.886 175.6227
5306.935985 85.901 175.9648
5345.392231 85.920 176.3065
5384.127146 85.943 176.6481
5423.142751 85.970 176.9916
5462.441079 86.002 177.3349
5502.024179 86.040 177.6740
5541.894114 86.084 178.0071
5582.052963 86.133 178.3293
5622.502820 86.189 178.6325
5663.245793 86.250 178.9109
5704.284007 86.317 179.1598
5745.619600 86.390 179.3733
5787.254728 86.469 179.5449
5829.191562 86.553 179.6669
5871.432287 86.642 179.7303
5913.979105 86.736 179.7264
5956.834236 86.832 179.6490
5999.999912 86.929 179.4938
6043.478385 87.026 179.2578
6087.271921 87.122 178.9379
6131.382802 87.213 178.5328
6175.813330 87.297 178.0446
6220.565819 87.374 177.4766
6265.642603 87.439 176.8351
6311.046032 87.493 176.1307
6356.778473 87.532 175.3767
6402.842310 87.558 174.5870
6449.239945 87.568 173.7783
6495.973796 87.563 172.9702
6543.046300 87.543 172.1815
6590.459911 87.509 171.4308
6638.217100 87.461 170.7344
6686.320358 87.403 170.1023
6734.772191 87.336 169.5415
6783.575127 87.263 169.0592
6832.731709 87.187 168.6624
6882.244499 87.109 168.3523
6932.116080 87.033 168.1257
6982.349051 86.960 167.9779
7032.946030 86.894 167.9044
7083.909656 86.836 167.8970
7135.242586 86.788 167.9447
7186.947495 86.753 168.0296
7239.027079 86.733 168.1279
7291.484053 86.729 168.2130
7344.321152 86.739 168.2594
7397.541131 86.762 168.2469
7451.146763 86.794 168.1649
7505.140844 86.836 168.0116
7559.526189 86.886 167.7925
7614.305632 86.947 167.5049
7669.482029 87.023 167.1110
7725.058258 87.112 166.5489
7781.037214 87.209 165.7704
7837.421817 87.305 164.7551
7894.215007 87.393 163.4958
7951.419743 87.465 161.9886
8009.039008 87.515 160.2363
8067.075806 87.533 158.2548
8125.533163 87.510 156.0737
8184.414126 87.439 153.7374
8243.721764 87.310 151.3047
8303.459170 87.116 148.8550
8363.629458 86.852 146.4984
8424.235765 86.517 144.3842
8485.281250 86.117 142.7105
8546.769096 85.680 141.6863
8608.702508 85.261 141.3748
8671.084715 84.918 141.5160
8733.918969 84.671 141.6352
8797.208547 84.488 141.3112
8860.956746 84.299 140.3759
8925.166891 84.034 139.0976
8989.842330 83.676 137.9491
9054.986433 83.251 137.2363
9120.602598 82.799 137.0253
9186.694244 82.349 137.2501
9253.264817 81.919 137.8170
9320.317788 81.513 138.6480
9387.856653 81.135 139.6905
9455.884932 80.784 140.9027
9524.406173 80.460 142.2460
9593.423946 80.163 143.6893
9662.941850 79.893 145.2109
9732.963510 79.649 146.7960
9803.492576 79.431 148.4352
9874.532725 79.239 150.1166
9946.087659 79.072 151.8217
10018.161110 78.929 153.5314
10090.756835 78.810 155.2256
10163.878619 78.716 156.8857
10237.530273 78.644 158.4985
10311.715638 78.595 160.0504
10386.438580 78.567 161.5297
10461.702996 78.558 162.9225
10537.512808 78.567 164.2076
10613.871970 78.591 165.3594
10690.784461 78.629 166.3577
10768.254293 78.673 167.1851
10846.285502 78.718 167.8305
10924.882158 78.757 168.2951
11004.048358 78.785 168.5984
11083.788228 78.798 168.7704
11164.105927 78.796 168.8253
11245.005640 78.773 168.7640
11326.491587 78.723 168.6053
11408.568014 78.639 168.3951
11491.239200 78.519 168.1904
11574.509457 78.364 168.0556
11658.383123 78.175 168.0548
11742.864573 77.959 168.2403
11827.958211 77.723 168.6481
11913.668472 77.476 169.2947
11999.999825 77.228 170.1829
12086.956770 76.986 171.3001
12174.543841 76.755 172.6124
12262.765605 76.540 174.0707
12351.626659 76.341 175.6351
12441.131638 76.160 177.2820
12531.285206 75.995 178.9950
12622.092064 75.846 -179.2388
12713.556946 75.711 -177.4280
12805.684621 75.589 -175.5826
12898.479890 75.479 -173.7113
12991.947593 75.383 -171.8200
13086.092601 75.298 -169.9161
13180.919822 75.226 -168.0120
13276.434201 75.165 -166.1120
13372.640716 75.118 -164.2118
13469.544383 75.083 -162.3097
13567.150254 75.059 -160.4086
13665.463417 75.047 -158.5101
13764.488998 75.049 -156.6084
13864.232160 75.070 -154.7009
13964.698101 75.111 -152.7984
14065.892060 75.176 -150.9144
14167.819312 75.265 -149.0674
14270.485171 75.381 -147.2800
14373.894990 75.527 -145.5791
14478.054158 75.709 -144.0009
14582.968107 75.930 -142.5881
14688.642305 76.190 -141.3945
14795.082262 76.488 -140.4846
14902.293527 76.822 -139.9352
15010.281689 77.187 -139.8334
15119.052378 77.573 -140.2741
15228.611264 77.964 -141.3415
15338.964058 78.336 -143.0955
15450.116515 78.664 -145.5538
15562.074428 78.918 -148.6786
15674.843635 79.067 -152.3647
15788.430013 79.086 -156.4323
15902.839485 78.957 -160.6368
16018.078016 78.674 -164.6969
16134.151612 78.246 -168.3346
16251.066326 77.693 -171.3087
16368.828251 77.044 -173.4380
16487.443528 76.327 -174.5963
16606.918341 75.570 -174.6522
16727.258917 74.805 -173.3673
16848.471530 74.105 -170.3219
16970.562500 73.626 -165.1112
17093.538192 73.612 -158.3276
17217.405016 74.162 -152.6816
17342.169430 74.986 -151.1055
17467.837939 75.655 -153.6014
17594.417093 75.967 -158.0715
17721.913492 75.954 -162.7314
17850.333783 75.728 -166.8923
17979.684660 75.372 -170.5662
18109.972866 74.916 -173.9466
18241.205195 74.359 -177.1481
18373.388487 73.685 179.8458
18506.529634 72.879 177.1408
18640.635577 71.923 174.9197
18775.713306 70.810 173.4719
18911.769865 69.546 173.1896
19048.812345 68.167 174.4963
19186.847892 66.740 177.6584
19325.883701 65.351 -177.4226
19465.927021 64.078 -171.2848
19606.985152 62.956 -164.6152
19749.065449 61.997 -157.8966
19892.175318 61.255 -151.6416
20036.322221 60.850 -147.3095
