* Measurement data measured by REW V5.40 beta 105
* Source: Microphone (USB Multi-Channel Audio Device), MICROPHONE (Master Volume), L, volume: 0.500
* Format: 256k Log Swept Sine, 1 sweep at -6.0 dBFS with no timing reference
* Dated: Nov 20, 2025 10:19:38 PM
* REW Settings:
*  C-weighting compensation: Off
*  Target level: 75.0 dB
* Note: ; 
* Measurement: Truthear Nova L Green Damper
* Smoothing: 1/24 octave
* Frequency Step: 96 ppo
* Start Frequency: 20.0 Hz
*
* Freq(Hz) SPL(dB) Phase(degrees)
19.995176 89.639 -141.9913
20.140070 89.653 -142.4357
20.286013 89.666 -142.8789
20.433014 89.679 -143.3208
20.581080 89.691 -143.7615
20.730219 89.704 -144.2009
20.880438 89.716 -144.6392
21.031747 89.728 -145.0764
21.184151 89.739 -145.5125
21.337660 89.750 -145.9476
21.492282 89.761 -146.3818
21.648024 89.772 -146.8152
21.804894 89.782 -147.2478
21.962902 89.792 -147.6798
22.122054 89.802 -148.1113
22.282359 89.812 -148.5424
22.443827 89.822 -148.9730
22.606464 89.831 -149.4033
22.770280 89.839 -149.8333
22.935282 89.848 -150.2631
23.101481 89.856 -150.6926
23.268884 89.864 -151.1218
23.437500 89.872 -151.5508
23.607337 89.879 -151.9796
23.778406 89.886 -152.4081
23.950714 89.892 -152.8363
24.124271 89.898 -153.2643
24.299085 89.904 -153.6921
24.475166 89.909 -154.1196
24.652524 89.914 -154.5470
24.831166 89.919 -154.9740
25.011103 89.923 -155.4009
25.192344 89.926 -155.8274
25.374898 89.929 -156.2536
25.558775 89.932 -156.6793
25.743984 89.934 -157.1043
25.930536 89.935 -157.5284
26.118439 89.936 -157.9515
26.307704 89.936 -158.3730
26.498340 89.936 -158.7928
26.690358 89.935 -159.2105
26.883768 89.933 -159.6257
27.078578 89.931 -160.0381
27.274801 89.928 -160.4474
27.472445 89.925 -160.8533
27.671522 89.922 -161.2557
27.872041 89.918 -161.6544
28.074014 89.914 -162.0496
28.277450 89.909 -162.4413
28.482360 89.905 -162.8297
28.688755 89.900 -163.2151
28.896645 89.895 -163.5977
29.106042 89.890 -163.9779
29.316956 89.885 -164.3560
29.529399 89.880 -164.7324
29.743381 89.875 -165.1073
29.958914 89.870 -165.4811
30.176009 89.865 -165.8540
30.394677 89.860 -166.2260
30.614929 89.854 -166.5975
30.836777 89.849 -166.9684
31.060233 89.843 -167.3388
31.285309 89.837 -167.7087
31.512015 89.830 -168.0781
31.740364 89.824 -168.4469
31.970368 89.817 -168.8151
32.202038 89.809 -169.1827
32.435387 89.802 -169.5495
32.670428 89.794 -169.9154
32.907171 89.785 -170.2804
33.145630 89.777 -170.6444
33.385817 89.767 -171.0074
33.627744 89.758 -171.3691
33.871425 89.748 -171.7297
34.116871 89.738 -172.0890
34.364096 89.727 -172.4470
34.613112 89.716 -172.8036
34.863933 89.705 -173.1589
35.116572 89.693 -173.5128
35.371041 89.681 -173.8653
35.627354 89.669 -174.2164
35.885524 89.656 -174.5659
36.145566 89.643 -174.9137
36.407491 89.629 -175.2599
36.671315 89.615 -175.6042
36.937051 89.601 -175.9466
37.204712 89.586 -176.2869
37.474312 89.571 -176.6251
37.745867 89.556 -176.9610
38.019389 89.541 -177.2946
38.294893 89.525 -177.6260
38.572393 89.509 -177.9551
38.851905 89.492 -178.2821
39.133442 89.476 -178.6071
39.417019 89.459 -178.9302
39.702651 89.443 -179.2518
39.990353 89.426 -179.5719
40.280139 89.409 -179.8907
40.572026 89.392 179.7916
40.866027 89.374 179.4749
41.162159 89.357 179.1590
41.460437 89.339 178.8439
41.760877 89.321 178.5295
42.063493 89.302 178.2161
42.368303 89.283 177.9037
42.675321 89.264 177.5925
42.984564 89.244 177.2828
43.296048 89.224 176.9750
43.609789 89.204 176.6692
43.925803 89.183 176.3659
44.244108 89.162 176.0653
44.564719 89.141 175.7676
44.887653 89.119 175.4731
45.212928 89.097 175.1816
45.540559 89.075 174.8933
45.870565 89.053 174.6081
46.202962 89.031 174.3258
46.537767 89.009 174.0461
46.874999 88.987 173.7687
47.214675 88.965 173.4933
47.556812 88.943 173.2194
47.901428 88.921 172.9466
48.248542 88.899 172.6744
48.598170 88.877 172.4027
48.950333 88.855 172.1313
49.305047 88.832 171.8601
49.662332 88.810 171.5893
50.022206 88.787 171.3191
50.384687 88.764 171.0496
50.749795 88.741 170.7810
51.117549 88.718 170.5134
51.487968 88.694 170.2468
51.861071 88.670 169.9811
52.236878 88.646 169.7163
52.615408 88.621 169.4524
52.996681 88.597 169.1895
53.380716 88.571 168.9278
53.767535 88.546 168.6675
54.157157 88.520 168.4088
54.549602 88.494 168.1520
54.944891 88.467 167.8969
55.343044 88.440 167.6436
55.744083 88.413 167.3918
56.148027 88.386 167.1414
56.554899 88.358 166.8921
56.964719 88.330 166.6441
57.377509 88.301 166.3977
57.793290 88.272 166.1536
58.212084 88.242 165.9125
58.633913 88.212 165.6750
59.058798 88.182 165.4416
59.486763 88.151 165.2122
59.917828 88.120 164.9866
60.352018 88.089 164.7642
60.789353 88.059 164.5442
61.229858 88.028 164.3263
61.673555 87.997 164.1100
62.120467 87.966 163.8954
62.570617 87.934 163.6826
63.024030 87.903 163.4716
63.480728 87.871 163.2626
63.940735 87.839 163.0556
64.404076 87.807 162.8506
64.870775 87.775 162.6475
65.340855 87.743 162.4463
65.814342 87.710 162.2470
66.291260 87.677 162.0497
66.771634 87.644 161.8543
67.255488 87.611 161.6610
67.742849 87.577 161.4699
68.233742 87.544 161.2811
68.728192 87.510 161.0949
69.226225 87.475 160.9118
69.727866 87.441 160.7322
70.233143 87.406 160.5563
70.742082 87.371 160.3838
71.254708 87.337 160.2140
71.771049 87.302 160.0460
72.291131 87.268 159.8788
72.814983 87.233 159.7120
73.342630 87.199 159.5453
73.874101 87.164 159.3794
74.409423 87.128 159.2148
74.948625 87.093 159.0527
75.491733 87.056 158.8937
76.038777 87.020 158.7386
76.589786 86.983 158.5877
77.144787 86.946 158.4413
77.703810 86.909 158.2990
78.266884 86.872 158.1606
78.834038 86.835 158.0256
79.405302 86.798 157.8933
79.980705 86.761 157.7634
80.560278 86.724 157.6359
81.144051 86.687 157.5110
81.732055 86.650 157.3889
82.324319 86.613 157.2698
82.920875 86.576 157.1537
83.521754 86.539 157.0403
84.126987 86.501 156.9293
84.736605 86.464 156.8208
85.350642 86.426 156.7151
85.969128 86.387 156.6131
86.592096 86.348 156.5155
87.219578 86.309 156.4230
87.851607 86.269 156.3361
88.488216 86.228 156.2544
89.129438 86.187 156.1775
89.775306 86.146 156.1049
90.425855 86.103 156.0374
91.081118 86.059 155.9777
91.741129 86.014 155.9313
92.405924 85.967 155.9064
93.075535 85.921 155.9117
93.749999 85.878 155.9506
94.429350 85.842 156.0140
95.113624 85.814 156.0760
95.802856 85.795 156.1003
96.497083 85.781 156.0560
97.196341 85.765 155.9340
97.900666 85.743 155.7530
98.610094 85.712 155.5480
99.324664 85.673 155.3524
100.044411 85.629 155.1853
100.769374 85.583 155.0492
101.499591 85.537 154.9374
102.235098 85.492 154.8414
102.975936 85.448 154.7547
103.722142 85.404 154.6742
104.473756 85.362 154.5985
105.230815 85.319 154.5275
105.993361 85.277 154.4611
106.761433 85.234 154.3999
107.535070 85.191 154.3449
108.314314 85.148 154.2975
109.099204 85.105 154.2585
109.889782 85.061 154.2277
110.686088 85.018 154.2031
111.488165 84.976 154.1825
112.296055 84.933 154.1644
113.109798 84.889 154.1488
113.929438 84.845 154.1371
114.755018 84.800 154.1314
115.586580 84.755 154.1330
116.424168 84.709 154.1422
117.267826 84.664 154.1578
118.117597 84.618 154.1781
118.973525 84.572 154.2015
119.835657 84.525 154.2286
120.704035 84.477 154.2620
121.578706 84.428 154.3058
122.459716 84.378 154.3629
123.347109 84.327 154.4341
124.240933 84.277 154.5189
125.141234 84.225 154.6174
126.048059 84.173 154.7312
126.961456 84.121 154.8650
127.881471 84.068 155.0250
128.808153 84.015 155.2160
129.741550 83.964 155.4396
130.681710 83.916 155.6935
131.628684 83.872 155.9738
132.582520 83.832 156.2781
133.543267 83.798 156.6041
134.510977 83.770 156.9467
135.485699 83.751 157.2940
136.467484 83.741 157.6284
137.456384 83.739 157.9299
138.452449 83.743 158.1812
139.455733 83.750 158.3724
140.466286 83.758 158.5087
141.484163 83.762 158.6151
142.509416 83.765 158.7265
143.542098 83.772 158.8578
144.582263 83.788 158.9810
145.629965 83.811 159.0447
146.685260 83.835 159.0195
147.748202 83.856 158.9160
148.818846 83.868 158.7648
149.897249 83.871 158.5937
150.983466 83.866 158.4218
152.077555 83.853 158.2608
153.179572 83.835 158.1168
154.289574 83.813 157.9909
155.407620 83.787 157.8827
156.533767 83.757 157.7935
157.668076 83.725 157.7256
158.810603 83.692 157.6797
159.961411 83.659 157.6521
161.120557 83.627 157.6352
162.288103 83.594 157.6223
163.464109 83.561 157.6118
164.648638 83.528 157.6067
165.841750 83.493 157.6107
167.043507 83.458 157.6257
168.253973 83.423 157.6518
169.473211 83.389 157.6879
170.701284 83.355 157.7321
171.938256 83.322 157.7818
173.184191 83.290 157.8333
174.439155 83.259 157.8831
175.703213 83.227 157.9304
176.976431 83.195 157.9775
178.258875 83.163 158.0279
179.550613 83.130 158.0833
180.851710 83.096 158.1432
182.162236 83.063 158.2072
183.482259 83.029 158.2765
184.811847 82.995 158.3529
186.151070 82.961 158.4365
187.499997 82.927 158.5258
188.858700 82.893 158.6193
190.227248 82.860 158.7166
191.605713 82.827 158.8184
192.994167 82.794 158.9240
194.392682 82.762 159.0315
195.801331 82.730 159.1405
197.220189 82.698 159.2534
198.649327 82.666 159.3720
200.088822 82.634 159.4959
201.538748 82.604 159.6229
202.999181 82.573 159.7515
204.470197 82.543 159.8824
205.951872 82.513 160.0176
207.444284 82.483 160.1591
208.947511 82.453 160.3063
210.461631 82.425 160.4568
211.986723 82.397 160.6097
213.522866 82.369 160.7650
215.070141 82.342 160.9222
216.628627 82.315 161.0814
218.198408 82.288 161.2434
219.779563 82.262 161.4083
221.372177 82.236 161.5764
222.976331 82.210 161.7481
224.592109 82.184 161.9231
226.219596 82.158 162.1013
227.858877 82.132 162.2851
229.510036 82.107 162.4762
231.173160 82.082 162.6736
232.848336 82.058 162.8762
234.535651 82.035 163.0852
236.235193 82.012 163.3009
237.947051 81.991 163.5211
239.671313 81.970 163.7458
241.408071 81.950 163.9781
243.157413 81.931 164.2198
244.919432 81.915 164.4697
246.694219 81.900 164.7254
248.481867 81.888 164.9836
250.282469 81.879 165.2407
252.096119 81.872 165.4948
253.922911 81.868 165.7440
255.762941 81.867 165.9830
257.616305 81.868 166.2066
259.483099 81.871 166.4119
261.363421 81.875 166.5975
263.257368 81.879 166.7625
265.165039 81.884 166.9080
267.086534 81.887 167.0362
269.021953 81.890 167.1488
270.971397 81.891 167.2487
272.934968 81.890 167.3391
274.912767 81.887 167.4229
276.904898 81.882 167.5032
278.911465 81.875 167.5840
280.932573 81.867 167.6671
282.968326 81.856 167.7542
285.018831 81.845 167.8483
287.084195 81.833 167.9514
289.164526 81.820 168.0609
291.259931 81.808 168.1738
293.370520 81.795 168.2903
295.496404 81.782 168.4134
297.637693 81.770 168.5444
299.794498 81.758 168.6807
301.966933 81.746 168.8187
304.155110 81.734 168.9583
306.359143 81.722 169.1015
308.579148 81.710 169.2492
310.815239 81.699 169.4005
313.067535 81.689 169.5548
315.336151 81.679 169.7106
317.621207 81.670 169.8648
319.922821 81.661 170.0164
322.241114 81.652 170.1678
324.576206 81.643 170.3220
326.928219 81.635 170.4800
329.297275 81.627 170.6406
331.683499 81.619 170.8002
334.087014 81.613 170.9571
336.507947 81.606 171.1127
338.946422 81.599 171.2686
341.402567 81.593 171.4246
343.876511 81.587 171.5805
346.368382 81.582 171.7359
348.878310 81.577 171.8900
351.406426 81.572 172.0420
353.952862 81.568 172.1923
356.517750 81.563 172.3416
359.101225 81.559 172.4910
361.703421 81.554 172.6415
364.324473 81.550 172.7924
366.964518 81.546 172.9432
369.623694 81.542 173.0954
372.302140 81.539 173.2484
374.999995 81.537 173.3999
377.717399 81.534 173.5487
380.454495 81.532 173.6952
383.211425 81.529 173.8409
385.988333 81.527 173.9879
388.785364 81.524 174.1354
391.602663 81.522 174.2819
394.440377 81.520 174.4255
397.298655 81.518 174.5656
400.177644 81.515 174.7030
403.077497 81.513 174.8388
405.998362 81.510 174.9750
408.940394 81.508 175.1129
411.903744 81.505 175.2518
414.888569 81.503 175.3915
417.895022 81.501 175.5330
420.923262 81.499 175.6742
423.973445 81.497 175.8140
427.045732 81.495 175.9537
430.140281 81.493 176.0938
433.257255 81.492 176.2320
436.396816 81.491 176.3668
439.559127 81.490 176.4978
442.744354 81.490 176.6274
445.952662 81.489 176.7590
449.184218 81.487 176.8922
452.439192 81.486 177.0263
455.717753 81.485 177.1618
459.020072 81.484 177.2990
462.346321 81.483 177.4378
465.696673 81.482 177.5778
469.071303 81.481 177.7181
472.470387 81.481 177.8571
475.894102 81.480 177.9961
479.342627 81.480 178.1368
482.816141 81.480 178.2766
486.314826 81.480 178.4120
489.838864 81.479 178.5440
493.388438 81.477 178.6769
496.963734 81.476 178.8108
500.564938 81.476 178.9421
504.192238 81.475 179.0705
507.845823 81.475 179.1987
511.525883 81.474 179.3289
515.232610 81.474 179.4626
518.966198 81.473 179.6010
522.726841 81.473 179.7424
526.514735 81.472 179.8840
530.330078 81.472 -179.9753
534.173068 81.471 -179.8361
538.043907 81.471 -179.6983
541.942795 81.470 -179.5617
545.869936 81.470 -179.4253
549.825534 81.470 -179.2885
553.809797 81.470 -179.1511
557.822931 81.470 -179.0117
561.865146 81.469 -178.8705
565.936652 81.469 -178.7297
570.037662 81.468 -178.5904
574.168390 81.467 -178.4501
578.329051 81.466 -178.3061
582.519862 81.466 -178.1581
586.741041 81.466 -178.0091
590.992808 81.466 -177.8617
595.275386 81.467 -177.7145
599.588997 81.468 -177.5656
603.933866 81.468 -177.4145
608.310219 81.469 -177.2625
612.718286 81.470 -177.1106
617.158295 81.470 -176.9590
621.630479 81.471 -176.8054
626.135069 81.472 -176.6477
630.672302 81.473 -176.4863
635.242414 81.473 -176.3239
639.845642 81.473 -176.1621
644.482227 81.474 -175.9994
649.152411 81.474 -175.8338
653.856437 81.475 -175.6644
658.594551 81.476 -175.4922
663.366998 81.478 -175.3230
668.174029 81.480 -175.1604
673.015893 81.482 -175.0011
677.892844 81.484 -174.8400
682.805135 81.485 -174.6710
687.753022 81.487 -174.4914
692.736764 81.490 -174.3044
697.756620 81.494 -174.1172
702.812853 81.498 -173.9339
707.905724 81.502 -173.7528
713.035501 81.505 -173.5700
718.202450 81.509 -173.3839
723.406841 81.512 -173.1956
728.648945 81.516 -173.0044
733.929036 81.520 -172.8074
739.247388 81.525 -172.6038
744.604279 81.530 -172.3971
749.999989 81.536 -172.1904
755.434798 81.542 -171.9847
760.908990 81.550 -171.7793
766.422850 81.558 -171.5741
771.976666 81.567 -171.3694
777.570727 81.576 -171.1640
783.205325 81.587 -170.9559
788.880754 81.597 -170.7429
794.597309 81.608 -170.5229
800.355289 81.619 -170.2977
806.154993 81.631 -170.0714
811.996725 81.644 -169.8466
817.880788 81.657 -169.6245
823.807489 81.671 -169.4057
829.777138 81.685 -169.1897
835.790045 81.700 -168.9736
841.846524 81.715 -168.7541
847.946891 81.732 -168.5306
854.091464 81.750 -168.3063
860.280562 81.769 -168.0861
866.514510 81.790 -167.8694
872.793631 81.812 -167.6522
879.118254 81.833 -167.4328
885.488707 81.856 -167.2125
891.905323 81.878 -166.9937
898.368437 81.902 -166.7776
904.878385 81.926 -166.5641
911.435507 81.951 -166.3530
918.040144 81.978 -166.1460
924.692641 82.005 -165.9450
931.393345 82.034 -165.7491
938.142606 82.064 -165.5576
944.940774 82.095 -165.3701
951.788204 82.127 -165.1859
958.685254 82.159 -165.0049
965.632282 82.192 -164.8267
972.629652 82.226 -164.6519
979.677727 82.261 -164.4821
986.776876 82.296 -164.3189
993.927468 82.331 -164.1624
1001.129876 82.366 -164.0137
1008.384476 82.403 -163.8750
1015.691645 82.440 -163.7449
1023.051766 82.478 -163.6206
1030.465221 82.516 -163.5031
1037.932396 82.555 -163.3948
1045.453682 82.594 -163.2970
1053.029471 82.634 -163.2092
1060.660156 82.673 -163.1288
1068.346137 82.712 -163.0526
1076.087813 82.751 -162.9812
1083.885589 82.789 -162.9173
1091.739871 82.828 -162.8617
1099.651068 82.866 -162.8127
1107.619593 82.904 -162.7677
1115.645861 82.942 -162.7279
1123.730291 82.980 -162.6975
1131.873304 83.017 -162.6778
1140.075325 83.053 -162.6671
1148.336780 83.090 -162.6642
1156.658102 83.126 -162.6684
1165.039724 83.161 -162.6785
1173.482082 83.196 -162.6930
1181.985617 83.229 -162.7108
1190.550772 83.261 -162.7326
1199.177993 83.293 -162.7601
1207.867731 83.324 -162.7923
1216.620439 83.354 -162.8275
1225.436572 83.383 -162.8659
1234.316591 83.410 -162.9074
1243.260957 83.437 -162.9527
1252.270139 83.463 -163.0003
1261.344604 83.488 -163.0483
1270.484827 83.512 -163.0975
1279.691284 83.536 -163.1482
1288.964455 83.559 -163.1985
1298.304823 83.581 -163.2478
1307.712874 83.603 -163.2967
1317.189101 83.623 -163.3442
1326.733996 83.643 -163.3891
1336.348058 83.662 -163.4325
1346.031787 83.680 -163.4769
1355.785688 83.698 -163.5242
1365.610270 83.716 -163.5707
1375.506045 83.733 -163.6125
1385.473529 83.750 -163.6506
1395.513241 83.766 -163.6868
1405.625705 83.782 -163.7197
1415.811448 83.797 -163.7493
1426.071002 83.811 -163.7770
1436.404900 83.825 -163.8024
1446.813682 83.839 -163.8251
1457.297890 83.852 -163.8445
1467.858072 83.865 -163.8598
1478.494776 83.878 -163.8732
1489.208559 83.891 -163.8860
1499.999978 83.904 -163.8960
1510.869596 83.917 -163.9014
1521.817980 83.929 -163.9018
1532.845701 83.942 -163.9000
1543.953332 83.954 -163.8980
1555.141455 83.967 -163.8937
1566.410651 83.980 -163.8855
1577.761508 83.992 -163.8739
1589.194618 84.005 -163.8587
1600.710578 84.017 -163.8384
1612.309986 84.030 -163.8129
1623.993449 84.043 -163.7850
1635.761575 84.056 -163.7565
1647.614978 84.070 -163.7282
1659.554275 84.084 -163.6990
1671.580089 84.099 -163.6664
1683.693048 84.114 -163.6300
1695.893782 84.129 -163.5924
1708.182927 84.145 -163.5539
1720.561125 84.160 -163.5114
1733.029020 84.177 -163.4634
1745.587263 84.195 -163.4122
1758.236508 84.214 -163.3605
1770.977414 84.233 -163.3082
1783.810646 84.252 -163.2566
1796.736874 84.272 -163.2067
1809.756770 84.291 -163.1566
1822.871013 84.311 -163.1046
1836.080288 84.331 -163.0522
1849.385283 84.353 -162.9995
1862.786691 84.375 -162.9449
1876.285211 84.399 -162.8914
1889.881547 84.423 -162.8406
1903.576408 84.448 -162.7918
1917.370507 84.472 -162.7435
1931.264564 84.497 -162.6954
1945.259304 84.523 -162.6483
1959.355454 84.550 -162.6030
1973.553752 84.578 -162.5592
1987.854936 84.607 -162.5178
2002.259752 84.636 -162.4768
2016.768952 84.665 -162.4335
2031.383291 84.695 -162.3906
2046.103531 84.725 -162.3513
2060.930441 84.756 -162.3157
2075.864793 84.788 -162.2841
2090.907365 84.821 -162.2563
2106.058941 84.855 -162.2324
2121.320313 84.889 -162.2138
2136.692274 84.923 -162.1986
2152.175627 84.958 -162.1854
2167.771179 84.993 -162.1742
2183.479742 85.029 -162.1649
2199.302137 85.065 -162.1575
2215.239187 85.102 -162.1527
2231.291723 85.140 -162.1516
2247.460582 85.178 -162.1545
2263.746608 85.217 -162.1625
2280.150649 85.257 -162.1766
2296.673561 85.296 -162.1945
2313.316204 85.336 -162.2119
2330.079447 85.376 -162.2267
2346.964163 85.416 -162.2378
2363.971233 85.456 -162.2467
2381.101543 85.498 -162.2537
2398.355986 85.540 -162.2553
2415.735463 85.583 -162.2472
2433.240878 85.628 -162.2289
2450.873144 85.676 -162.2007
2468.633181 85.727 -162.1656
2486.521915 85.783 -162.1264
2504.540278 85.845 -162.0873
2522.689209 85.914 -162.0574
2540.969655 85.989 -162.0495
2559.382568 86.072 -162.0759
2577.928909 86.159 -162.1492
2596.609645 86.249 -162.2808
2615.425749 86.341 -162.4754
2634.378202 86.431 -162.7309
2653.467992 86.519 -163.0379
2672.696115 86.602 -163.3847
2692.063573 86.682 -163.7628
2711.571376 86.758 -164.1644
2731.220539 86.831 -164.5849
2751.012089 86.900 -165.0224
2770.947057 86.967 -165.4744
2791.026482 87.031 -165.9400
2811.251410 87.094 -166.4201
2831.622897 87.155 -166.9148
2852.142003 87.214 -167.4265
2872.809800 87.271 -167.9567
2893.627364 87.327 -168.5048
2914.595781 87.381 -169.0724
2935.716143 87.433 -169.6601
2956.989553 87.483 -170.2656
2978.417118 87.531 -170.8891
2999.999956 87.576 -171.5327
3021.739192 87.618 -172.1972
3043.635960 87.657 -172.8847
3065.691401 87.693 -173.5951
3087.906665 87.724 -174.3270
3110.282909 87.751 -175.0790
3132.821301 87.773 -175.8483
3155.523016 87.791 -176.6334
3178.389237 87.803 -177.4332
3201.421155 87.810 -178.2443
3224.619973 87.812 -179.0644
3247.986898 87.808 -179.8907
3271.523150 87.799 179.2830
3295.229956 87.784 178.4596
3319.108550 87.764 177.6401
3343.160179 87.738 176.8275
3367.386096 87.706 176.0224
3391.787563 87.670 175.2250
3416.365854 87.628 174.4383
3441.122250 87.583 173.6638
3466.058040 87.533 172.9012
3491.174525 87.479 172.1509
3516.473015 87.421 171.4114
3541.954828 87.358 170.6830
3567.621293 87.292 169.9679
3593.473747 87.220 169.2662
3619.513539 87.145 168.5797
3645.742027 87.064 167.9118
3672.160576 86.977 167.2661
3698.770566 86.886 166.6478
3725.573382 86.790 166.0582
3752.570422 86.690 165.4965
3779.763094 86.585 164.9667
3807.152816 86.476 164.4748
3834.741015 86.364 164.0231
3862.529129 86.248 163.6147
3890.518607 86.131 163.2535
3918.710909 86.011 162.9402
3947.107503 85.890 162.6740
3975.709871 85.769 162.4543
4004.519504 85.647 162.2819
4033.537903 85.524 162.1577
4062.766581 85.402 162.0782
4092.207063 85.281 162.0430
4121.860882 85.162 162.0528
4151.729585 85.045 162.1051
4181.814729 84.930 162.1979
4212.117883 84.818 162.3309
4242.640625 84.710 162.5010
4273.384548 84.605 162.7039
4304.351254 84.503 162.9340
4335.542358 84.404 163.1862
4366.959485 84.308 163.4587
4398.604273 84.214 163.7531
4430.478373 84.122 164.0707
4462.583446 84.031 164.4110
4494.921165 83.941 164.7757
4527.493217 83.851 165.1723
4560.301299 83.761 165.6126
4593.347122 83.674 166.1037
4626.632409 83.589 166.6479
4660.158894 83.510 167.2458
4693.928327 83.437 167.8947
4727.942466 83.371 168.5898
4762.203086 83.315 169.3269
4796.711973 83.268 170.0989
4831.470925 83.230 170.8956
4866.481755 83.201 171.7071
4901.746288 83.181 172.5250
4937.266362 83.170 173.3422
4973.043830 83.167 174.1542
5009.080555 83.172 174.9604
5045.378418 83.185 175.7601
5081.939310 83.205 176.5536
5118.765137 83.232 177.3389
5155.857819 83.266 178.1140
5193.219290 83.307 178.8806
5230.851498 83.354 179.6399
5268.756404 83.408 -179.6089
5306.935985 83.469 -178.8693
5345.392231 83.537 -178.1444
5384.127146 83.613 -177.4380
5423.142751 83.697 -176.7541
5462.441079 83.787 -176.0971
5502.024179 83.886 -175.4691
5541.894114 83.992 -174.8688
5582.052963 84.107 -174.3007
5622.502820 84.230 -173.7738
5663.245793 84.362 -173.2928
5704.284007 84.502 -172.8623
5745.619600 84.651 -172.4928
5787.254728 84.808 -172.1986
5829.191562 84.972 -171.9912
5871.432287 85.140 -171.8771
5913.979105 85.313 -171.8624
5956.834236 85.488 -171.9572
5999.999912 85.663 -172.1681
6043.478385 85.836 -172.4977
6087.271921 86.006 -172.9485
6131.382802 86.169 -173.5188
6175.813330 86.323 -174.2044
6220.565819 86.467 -175.0016
6265.642603 86.596 -175.9014
6311.046032 86.710 -176.8917
6356.778473 86.807 -177.9597
6402.842310 86.884 -179.0866
6449.239945 86.941 179.7491
6495.973796 86.976 178.5663
6543.046300 86.989 177.3861
6590.459911 86.981 176.2303
6638.217100 86.953 175.1210
6686.320358 86.908 174.0807
6734.772191 86.849 173.1266
6783.575127 86.778 172.2723
6832.731709 86.698 171.5279
6882.244499 86.613 170.8956
6932.116080 86.525 170.3731
6982.349051 86.439 169.9594
7032.946030 86.357 169.6500
7083.909656 86.281 169.4342
7135.242586 86.215 169.2989
7186.947495 86.162 169.2234
7239.027079 86.124 169.1814
7291.484053 86.102 169.1456
7344.321152 86.095 169.0865
7397.541131 86.101 168.9825
7451.146763 86.119 168.8195
7505.140844 86.146 168.5903
7559.526189 86.182 168.2979
7614.305632 86.229 167.9398
7669.482029 86.290 167.4802
7725.058258 86.362 166.8660
7781.037214 86.440 166.0565
7837.421817 86.517 165.0287
7894.215007 86.586 163.7735
7951.419743 86.639 162.2913
8009.039008 86.669 160.5913
8067.075806 86.669 158.6935
8125.533163 86.631 156.6249
8184.414126 86.547 154.4239
8243.721764 86.412 152.1436
8303.459170 86.218 149.8499
8363.629458 85.961 147.6314
8424.235765 85.635 145.6145
8485.281250 85.245 143.9795
8546.769096 84.811 142.9415
8608.702508 84.380 142.6274
8671.084715 84.013 142.8786
8733.918969 83.743 143.2628
8797.208547 83.557 143.3060
8860.956746 83.388 142.7412
8925.166891 83.162 141.7522
8989.842330 82.851 140.7856
9054.986433 82.475 140.1617
9120.602598 82.069 139.9742
9186.694244 81.661 140.1849
9253.264817 81.267 140.7174
9320.317788 80.895 141.5004
9387.856653 80.547 142.4793
9455.884932 80.224 143.6169
9524.406173 79.926 144.8841
9593.423946 79.654 146.2551
9662.941850 79.408 147.7077
9732.963510 79.188 149.2214
9803.492576 78.994 150.7775
9874.532725 78.826 152.3585
9946.087659 78.681 153.9515
10018.161110 78.560 155.5413
10090.756835 78.462 157.1115
10163.878619 78.385 158.6469
10237.530273 78.329 160.1292
10311.715638 78.292 161.5382
10386.438580 78.275 162.8607
10461.702996 78.274 164.0848
10537.512808 78.288 165.1992
10613.871970 78.314 166.1869
10690.784461 78.346 167.0310
10768.254293 78.381 167.7214
10846.285502 78.414 168.2570
10924.882158 78.439 168.6447
11004.048358 78.452 168.9069
11083.788228 78.450 169.0776
11164.105927 78.431 169.1794
11245.005640 78.393 169.2185
11326.491587 78.333 169.2072
11408.568014 78.247 169.1763
11491.239200 78.136 169.1675
11574.509457 77.999 169.2262
11658.383123 77.839 169.3981
11742.864573 77.660 169.7231
11827.958211 77.468 170.2268
11913.668472 77.268 170.9147
11999.999825 77.068 171.7775
12086.956770 76.872 172.7966
12174.543841 76.686 173.9521
12262.765605 76.512 175.2253
12351.626659 76.350 176.5897
12441.131638 76.200 178.0208
12531.285206 76.061 179.4980
12622.092064 75.934 -178.9914
12713.556946 75.814 -177.4515
12805.684621 75.704 -175.8867
12898.479890 75.602 -174.2987
12991.947593 75.510 -172.6914
13086.092601 75.427 -171.0675
13180.919822 75.353 -169.4213
13276.434201 75.286 -167.7493
13372.640716 75.228 -166.0551
13469.544383 75.180 -164.3426
13567.150254 75.144 -162.6152
13665.463417 75.121 -160.8803
13764.488998 75.114 -159.1448
13864.232160 75.123 -157.4139
13964.698101 75.149 -155.6890
14065.892060 75.194 -153.9728
14167.819312 75.261 -152.2847
14270.485171 75.355 -150.6534
14373.894990 75.477 -149.1018
14478.054158 75.633 -147.6599
14582.968107 75.823 -146.3768
14688.642305 76.047 -145.3095
14795.082262 76.304 -144.5186
14902.293527 76.590 -144.0614
15010.281689 76.901 -143.9992
15119.052378 77.228 -144.4032
15228.611264 77.556 -145.3429
15338.964058 77.867 -146.8652
15450.116515 78.138 -148.9821
15562.074428 78.346 -151.6592
15674.843635 78.467 -154.8122
15788.430013 78.480 -158.2944
15902.839485 78.368 -161.9068
16018.078016 78.127 -165.4244
16134.151612 77.763 -168.6194
16251.066326 77.289 -171.2781
16368.828251 76.724 -173.2284
16487.443528 76.093 -174.3315
16606.918341 75.419 -174.4316
16727.258917 74.736 -173.2754
16848.471530 74.113 -170.4595
16970.562500 73.703 -165.6181
17093.538192 73.744 -159.3325
17217.405016 74.329 -154.1872
17342.169430 75.176 -153.0216
17467.837939 75.863 -155.8865
17594.417093 76.187 -160.7421
17721.913492 76.181 -165.8264
17850.333783 75.950 -170.4589
17979.684660 75.574 -174.6412
18109.972866 75.082 -178.5117
18241.205195 74.471 177.8903
18373.388487 73.729 174.6269
18506.529634 72.849 171.8089
18640.635577 71.823 169.6069
18775.713306 70.652 168.2830
18911.769865 69.346 168.1851
19048.812345 67.939 169.6805
19186.847892 66.489 172.9831
19325.883701 65.076 177.9736
19465.927021 63.775 -175.8268
19606.985152 62.630 -169.0409
19749.065449 61.666 -162.1575
19892.175318 60.937 -155.7804
20036.322221 60.547 -151.4182
