* Measurement data measured by REW V5.40 beta 105
* Source: Microphone (USB Multi-Channel Audio Device), MICROPHONE (Master Volume), L, volume: 0.500
* Format: 256k Log Swept Sine, 1 sweep at -6.0 dBFS with no timing reference
* Dated: Nov 20, 2025 10:21:43 PM
* REW Settings:
*  C-weighting compensation: Off
*  Target level: 75.0 dB
* Note: ; 
* Measurement: Truthear Nova R Brown Damper
* Smoothing: 1/24 octave
* Frequency Step: 96 ppo
* Start Frequency: 20.0 Hz
*
* Freq(Hz) SPL(dB) Phase(degrees)
19.995176 89.682 -143.4021
20.140070 89.695 -143.8412
20.286013 89.707 -144.2797
20.433014 89.720 -144.7176
20.581080 89.731 -145.1548
20.730219 89.743 -145.5914
20.880438 89.754 -146.0275
21.031747 89.765 -146.4629
21.184151 89.775 -146.8978
21.337660 89.785 -147.3321
21.492282 89.795 -147.7657
21.648024 89.804 -148.1987
21.804894 89.813 -148.6310
21.962902 89.821 -149.0626
22.122054 89.829 -149.4934
22.282359 89.837 -149.9234
22.443827 89.844 -150.3525
22.606464 89.851 -150.7807
22.770280 89.857 -151.2079
22.935282 89.863 -151.6341
23.101481 89.869 -152.0592
23.268884 89.874 -152.4832
23.437500 89.879 -152.9062
23.607337 89.883 -153.3280
23.778406 89.888 -153.7486
23.950714 89.891 -154.1680
24.124271 89.894 -154.5863
24.299085 89.897 -155.0034
24.475166 89.900 -155.4193
24.652524 89.902 -155.8340
24.831166 89.904 -156.2475
25.011103 89.905 -156.6597
25.192344 89.906 -157.0706
25.374898 89.907 -157.4801
25.558775 89.907 -157.8882
25.743984 89.907 -158.2949
25.930536 89.907 -158.6999
26.118439 89.906 -159.1033
26.307704 89.905 -159.5050
26.498340 89.903 -159.9048
26.690358 89.901 -160.3027
26.883768 89.899 -160.6987
27.078578 89.896 -161.0927
27.274801 89.894 -161.4846
27.472445 89.891 -161.8746
27.671522 89.887 -162.2626
27.872041 89.884 -162.6487
28.074014 89.880 -163.0329
28.277450 89.877 -163.4156
28.482360 89.873 -163.7968
28.688755 89.869 -164.1769
28.896645 89.865 -164.5559
29.106042 89.860 -164.9341
29.316956 89.856 -165.3119
29.529399 89.851 -165.6893
29.743381 89.847 -166.0666
29.958914 89.842 -166.4439
30.176009 89.836 -166.8214
30.394677 89.831 -167.1989
30.614929 89.825 -167.5766
30.836777 89.819 -167.9542
31.060233 89.812 -168.3316
31.285309 89.805 -168.7086
31.512015 89.797 -169.0850
31.740364 89.789 -169.4605
31.970368 89.781 -169.8348
32.202038 89.772 -170.2077
32.435387 89.762 -170.5789
32.670428 89.752 -170.9482
32.907171 89.742 -171.3153
33.145630 89.731 -171.6802
33.385817 89.720 -172.0428
33.627744 89.708 -172.4029
33.871425 89.696 -172.7605
34.116871 89.684 -173.1157
34.364096 89.672 -173.4686
34.613112 89.660 -173.8191
34.863933 89.647 -174.1675
35.116572 89.634 -174.5139
35.371041 89.621 -174.8586
35.627354 89.608 -175.2016
35.885524 89.595 -175.5432
36.145566 89.581 -175.8837
36.407491 89.568 -176.2231
36.671315 89.554 -176.5618
36.937051 89.540 -176.8997
37.204712 89.526 -177.2370
37.474312 89.511 -177.5736
37.745867 89.497 -177.9096
38.019389 89.482 -178.2448
38.294893 89.466 -178.5791
38.572393 89.451 -178.9124
38.851905 89.435 -179.2444
39.133442 89.418 -179.5750
39.417019 89.401 -179.9040
39.702651 89.384 179.7686
39.990353 89.367 179.4429
40.280139 89.349 179.1190
40.572026 89.331 178.7968
40.866027 89.313 178.4762
41.162159 89.294 178.1570
41.460437 89.276 177.8393
41.760877 89.257 177.5229
42.063493 89.237 177.2077
42.368303 89.218 176.8938
42.675321 89.198 176.5812
42.984564 89.177 176.2702
43.296048 89.156 175.9608
43.609789 89.135 175.6534
43.925803 89.114 175.3480
44.244108 89.092 175.0451
44.564719 89.069 174.7448
44.887653 89.047 174.4473
45.212928 89.024 174.1526
45.540559 89.001 173.8608
45.870565 88.978 173.5719
46.202962 88.954 173.2857
46.537767 88.931 173.0020
46.874999 88.907 172.7204
47.214675 88.883 172.4409
47.556812 88.859 172.1630
47.901428 88.835 171.8866
48.248542 88.811 171.6117
48.598170 88.787 171.3382
48.950333 88.762 171.0662
49.305047 88.737 170.7958
49.662332 88.712 170.5270
50.022206 88.687 170.2602
50.384687 88.661 169.9952
50.749795 88.636 169.7321
51.117549 88.610 169.4710
51.487968 88.584 169.2118
51.861071 88.557 168.9545
52.236878 88.531 168.6990
52.615408 88.504 168.4453
52.996681 88.477 168.1933
53.380716 88.450 167.9428
53.767535 88.422 167.6938
54.157157 88.394 167.4464
54.549602 88.366 167.2004
54.944891 88.338 166.9562
55.343044 88.310 166.7139
55.744083 88.281 166.4739
56.148027 88.251 166.2365
56.554899 88.222 166.0018
56.964719 88.192 165.7700
57.377509 88.162 165.5409
57.793290 88.132 165.3144
58.212084 88.102 165.0900
58.633913 88.072 164.8674
59.058798 88.042 164.6462
59.486763 88.012 164.4261
59.917828 87.982 164.2066
60.352018 87.951 163.9877
60.789353 87.921 163.7693
61.229858 87.890 163.5517
61.673555 87.858 163.3353
62.120467 87.826 163.1206
62.570617 87.794 162.9083
63.024030 87.761 162.6987
63.480728 87.728 162.4921
63.940735 87.695 162.2885
64.404076 87.661 162.0877
64.870775 87.628 161.8893
65.340855 87.594 161.6932
65.814342 87.561 161.4990
66.291260 87.527 161.3065
66.771634 87.492 161.1160
67.255488 87.458 160.9275
67.742849 87.423 160.7410
68.233742 87.389 160.5568
68.728192 87.354 160.3749
69.226225 87.318 160.1955
69.727866 87.283 160.0188
70.233143 87.247 159.8449
70.742082 87.211 159.6743
71.254708 87.175 159.5071
71.771049 87.139 159.3434
72.291131 87.102 159.1831
72.814983 87.066 159.0258
73.342630 87.030 158.8708
73.874101 86.994 158.7175
74.409423 86.958 158.5654
74.948625 86.922 158.4144
75.491733 86.885 158.2646
76.038777 86.848 158.1163
76.589786 86.811 157.9703
77.144787 86.774 157.8269
77.703810 86.737 157.6863
78.266884 86.699 157.5485
78.834038 86.661 157.4131
79.405302 86.623 157.2799
79.980705 86.584 157.1488
80.560278 86.546 157.0198
81.144051 86.507 156.8932
81.732055 86.467 156.7696
82.324319 86.427 156.6495
82.920875 86.387 156.5332
83.521754 86.347 156.4203
84.126987 86.306 156.3102
84.736605 86.266 156.2020
85.350642 86.225 156.0949
85.969128 86.184 155.9885
86.592096 86.143 155.8825
87.219578 86.101 155.7770
87.851607 86.060 155.6714
88.488216 86.018 155.5646
89.129438 85.976 155.4550
89.775306 85.934 155.3405
90.425855 85.891 155.2187
91.081118 85.847 155.0879
91.741129 85.802 154.9467
92.405924 85.754 154.7960
93.075535 85.702 154.6413
93.749999 85.645 154.4964
94.429350 85.583 154.3834
95.113624 85.518 154.3279
95.802856 85.455 154.3445
96.497083 85.399 154.4235
97.196341 85.356 154.5281
97.900666 85.324 154.6106
98.610094 85.299 154.6365
99.324664 85.276 154.6000
100.044411 85.249 154.5195
100.769374 85.217 154.4220
101.499591 85.180 154.3284
102.235098 85.140 154.2488
102.975936 85.098 154.1853
103.722142 85.054 154.1362
104.473756 85.009 154.0998
105.230815 84.964 154.0746
105.993361 84.917 154.0605
106.761433 84.869 154.0573
107.535070 84.821 154.0655
108.314314 84.772 154.0854
109.099204 84.722 154.1172
109.889782 84.673 154.1598
110.686088 84.623 154.2116
111.488165 84.573 154.2718
112.296055 84.522 154.3410
113.109798 84.471 154.4221
113.929438 84.420 154.5187
114.755018 84.369 154.6333
115.586580 84.318 154.7664
116.424168 84.270 154.9164
117.267826 84.224 155.0793
118.117597 84.180 155.2498
118.973525 84.138 155.4222
119.835657 84.097 155.5935
120.704035 84.056 155.7652
121.578706 84.015 155.9439
122.459716 83.973 156.1390
123.347109 83.931 156.3602
124.240933 83.890 156.6155
125.141234 83.852 156.9093
126.048059 83.821 157.2395
126.961456 83.797 157.5964
127.881471 83.784 157.9627
128.808153 83.781 158.3167
129.741550 83.787 158.6366
130.681710 83.801 158.9044
131.628684 83.821 159.1086
132.582520 83.841 159.2455
133.543267 83.861 159.3197
134.510977 83.878 159.3420
135.485699 83.891 159.3247
136.467484 83.900 159.2777
137.456384 83.905 159.2068
138.452449 83.905 159.1154
139.455733 83.900 159.0080
140.466286 83.890 158.8929
141.484163 83.876 158.7830
142.509416 83.858 158.6914
143.542098 83.839 158.6238
144.582263 83.822 158.5704
145.629965 83.806 158.5111
146.685260 83.792 158.4299
147.748202 83.776 158.3254
148.818846 83.756 158.2075
149.897249 83.732 158.0874
150.983466 83.703 157.9733
152.077555 83.672 157.8701
153.179572 83.637 157.7822
154.289574 83.599 157.7133
155.407620 83.560 157.6651
156.533767 83.519 157.6363
157.668076 83.479 157.6227
158.810603 83.438 157.6206
159.961411 83.398 157.6281
161.120557 83.357 157.6450
162.288103 83.316 157.6718
163.464109 83.276 157.7076
164.648638 83.235 157.7504
165.841750 83.195 157.7995
167.043507 83.154 157.8566
168.253973 83.113 157.9243
169.473211 83.073 158.0040
170.701284 83.033 158.0942
171.938256 82.995 158.1915
173.184191 82.957 158.2925
174.439155 82.920 158.3951
175.703213 82.884 158.4990
176.976431 82.847 158.6053
178.258875 82.811 158.7157
179.550613 82.775 158.8309
180.851710 82.739 158.9507
182.162236 82.704 159.0748
183.482259 82.669 159.2039
184.811847 82.634 159.3385
186.151070 82.600 159.4783
187.499997 82.567 159.6220
188.858700 82.534 159.7685
190.227248 82.502 159.9169
191.605713 82.470 160.0667
192.994167 82.438 160.2188
194.392682 82.407 160.3754
195.801331 82.376 160.5377
197.220189 82.345 160.7038
198.649327 82.315 160.8713
200.088822 82.286 161.0391
201.538748 82.256 161.2075
202.999181 82.227 161.3776
204.470197 82.198 161.5513
205.951872 82.170 161.7297
207.444284 82.142 161.9122
208.947511 82.114 162.0974
210.461631 82.088 162.2839
211.986723 82.061 162.4721
213.522866 82.035 162.6632
215.070141 82.010 162.8571
216.628627 81.986 163.0509
218.198408 81.962 163.2421
219.779563 81.938 163.4313
221.372177 81.914 163.6226
222.976331 81.890 163.8190
224.592109 81.866 164.0197
226.219596 81.843 164.2226
227.858877 81.820 164.4264
229.510036 81.797 164.6314
231.173160 81.775 164.8393
232.848336 81.753 165.0515
234.535651 81.731 165.2684
236.235193 81.709 165.4895
237.947051 81.689 165.7125
239.671313 81.669 165.9343
241.408071 81.649 166.1552
243.157413 81.629 166.3790
244.919432 81.608 166.6089
246.694219 81.588 166.8463
248.481867 81.569 167.0920
250.282469 81.550 167.3472
252.096119 81.532 167.6112
253.922911 81.515 167.8831
255.762941 81.499 168.1642
257.616305 81.484 168.4562
259.483099 81.472 168.7576
261.363421 81.462 169.0645
263.257368 81.454 169.3749
265.165039 81.449 169.6899
267.086534 81.447 170.0106
269.021953 81.449 170.3348
270.971397 81.456 170.6549
272.934968 81.468 170.9598
274.912767 81.484 171.2376
276.904898 81.502 171.4788
278.911465 81.522 171.6791
280.932573 81.540 171.8405
282.968326 81.556 171.9689
285.018831 81.569 172.0703
287.084195 81.578 172.1521
289.164526 81.582 172.2249
291.259931 81.582 172.2975
293.370520 81.579 172.3757
295.496404 81.573 172.4642
297.637693 81.566 172.5642
299.794498 81.559 172.6735
301.966933 81.551 172.7914
304.155110 81.543 172.9195
306.359143 81.534 173.0585
308.579148 81.526 173.2063
310.815239 81.518 173.3590
313.067535 81.511 173.5139
315.336151 81.503 173.6719
317.621207 81.495 173.8362
319.922821 81.487 174.0073
322.241114 81.479 174.1830
324.576206 81.473 174.3617
326.928219 81.467 174.5411
329.297275 81.463 174.7182
331.683499 81.458 174.8922
334.087014 81.454 175.0657
336.507947 81.450 175.2398
338.946422 81.446 175.4155
341.402567 81.443 175.5934
343.876511 81.441 175.7723
346.368382 81.440 175.9515
348.878310 81.439 176.1306
351.406426 81.438 176.3084
353.952862 81.438 176.4854
356.517750 81.437 176.6617
359.101225 81.438 176.8356
361.703421 81.438 177.0054
364.324473 81.438 177.1727
366.964518 81.438 177.3402
369.623694 81.437 177.5082
372.302140 81.437 177.6768
374.999995 81.437 177.8480
377.717399 81.437 178.0231
380.454495 81.437 178.1998
383.211425 81.439 178.3741
385.988333 81.440 178.5431
388.785364 81.442 178.7069
391.602663 81.443 178.8688
394.440377 81.444 179.0316
397.298655 81.445 179.1958
400.177644 81.447 179.3608
403.077497 81.450 179.5255
405.998362 81.452 179.6890
408.940394 81.456 179.8517
411.903744 81.459 -179.9858
414.888569 81.461 -179.8239
417.895022 81.464 -179.6628
420.923262 81.466 -179.5011
423.973445 81.468 -179.3384
427.045732 81.470 -179.1758
430.140281 81.472 -179.0135
433.257255 81.475 -178.8497
436.396816 81.478 -178.6846
439.559127 81.481 -178.5205
442.744354 81.485 -178.3594
445.952662 81.489 -178.2027
449.184218 81.492 -178.0488
452.439192 81.495 -177.8949
455.717753 81.498 -177.7410
459.020072 81.501 -177.5867
462.346321 81.504 -177.4320
465.696673 81.507 -177.2786
469.071303 81.511 -177.1269
472.470387 81.515 -176.9765
475.894102 81.519 -176.8274
479.342627 81.523 -176.6778
482.816141 81.527 -176.5263
486.314826 81.531 -176.3742
489.838864 81.536 -176.2234
493.388438 81.540 -176.0710
496.963734 81.544 -175.9144
500.564938 81.549 -175.7558
504.192238 81.553 -175.5979
507.845823 81.557 -175.4424
511.525883 81.560 -175.2914
515.232610 81.564 -175.1442
518.966198 81.567 -174.9967
522.726841 81.571 -174.8465
526.514735 81.575 -174.6919
530.330078 81.579 -174.5343
534.173068 81.584 -174.3785
538.043907 81.589 -174.2257
541.942795 81.592 -174.0722
545.869936 81.596 -173.9167
549.825534 81.600 -173.7610
553.809797 81.604 -173.6063
557.822931 81.608 -173.4530
561.865146 81.611 -173.2977
565.936652 81.615 -173.1359
570.037662 81.619 -172.9692
574.168390 81.623 -172.8024
578.329051 81.628 -172.6384
582.519862 81.633 -172.4787
586.741041 81.638 -172.3210
590.992808 81.642 -172.1618
595.275386 81.646 -172.0001
599.588997 81.651 -171.8365
603.933866 81.655 -171.6707
608.310219 81.660 -171.5013
612.718286 81.666 -171.3278
617.158295 81.671 -171.1507
621.630479 81.678 -170.9732
626.135069 81.684 -170.7994
630.672302 81.690 -170.6286
635.242414 81.695 -170.4563
639.845642 81.700 -170.2796
644.482227 81.705 -170.0978
649.152411 81.709 -169.9127
653.856437 81.714 -169.7252
658.594551 81.720 -169.5357
663.366998 81.727 -169.3464
668.174029 81.733 -169.1591
673.015893 81.740 -168.9735
677.892844 81.747 -168.7867
682.805135 81.753 -168.5945
687.753022 81.760 -168.3939
692.736764 81.767 -168.1885
697.756620 81.776 -167.9855
702.812853 81.785 -167.7860
707.905724 81.794 -167.5866
713.035501 81.803 -167.3843
718.202450 81.812 -167.1780
723.406841 81.822 -166.9671
728.648945 81.833 -166.7513
733.929036 81.843 -166.5308
739.247388 81.854 -166.3083
744.604279 81.865 -166.0876
749.999989 81.877 -165.8706
755.434798 81.889 -165.6562
760.908990 81.900 -165.4408
766.422850 81.912 -165.2184
771.976666 81.925 -164.9867
777.570727 81.939 -164.7504
783.205325 81.954 -164.5134
788.880754 81.970 -164.2766
794.597309 81.987 -164.0399
800.355289 82.004 -163.8015
806.154993 82.022 -163.5616
811.996725 82.041 -163.3249
817.880788 82.059 -163.0938
823.807489 82.079 -162.8656
829.777138 82.098 -162.6362
835.790045 82.119 -162.4022
841.846524 82.141 -162.1630
847.946891 82.163 -161.9221
854.091464 82.187 -161.6822
860.280562 82.211 -161.4411
866.514510 82.236 -161.1998
872.793631 82.262 -160.9625
879.118254 82.289 -160.7281
885.488707 82.317 -160.4926
891.905323 82.345 -160.2541
898.368437 82.375 -160.0150
904.878385 82.407 -159.7805
911.435507 82.439 -159.5524
918.040144 82.472 -159.3297
924.692641 82.506 -159.1126
931.393345 82.541 -158.8991
938.142606 82.577 -158.6860
944.940774 82.613 -158.4743
951.788204 82.651 -158.2667
958.685254 82.689 -158.0641
965.632282 82.727 -157.8665
972.629652 82.766 -157.6738
979.677727 82.806 -157.4876
986.776876 82.847 -157.3126
993.927468 82.888 -157.1485
1001.129876 82.930 -156.9888
1008.384476 82.974 -156.8305
1015.691645 83.018 -156.6766
1023.051766 83.063 -156.5289
1030.465221 83.108 -156.3896
1037.932396 83.153 -156.2613
1045.453682 83.199 -156.1429
1053.029471 83.244 -156.0337
1060.660156 83.290 -155.9327
1068.346137 83.335 -155.8387
1076.087813 83.381 -155.7504
1083.885589 83.427 -155.6677
1091.739871 83.473 -155.5902
1099.651068 83.519 -155.5193
1107.619593 83.564 -155.4559
1115.645861 83.609 -155.4001
1123.730291 83.653 -155.3542
1131.873304 83.697 -155.3194
1140.075325 83.741 -155.2930
1148.336780 83.784 -155.2723
1156.658102 83.827 -155.2561
1165.039724 83.870 -155.2442
1173.482082 83.911 -155.2367
1181.985617 83.952 -155.2345
1190.550772 83.993 -155.2379
1199.177993 84.033 -155.2476
1207.867731 84.071 -155.2608
1216.620439 84.109 -155.2757
1225.436572 84.146 -155.2956
1234.316591 84.182 -155.3209
1243.260957 84.217 -155.3464
1252.270139 84.252 -155.3714
1261.344604 84.285 -155.3986
1270.484827 84.317 -155.4284
1279.691284 84.349 -155.4594
1288.964455 84.380 -155.4901
1298.304823 84.411 -155.5208
1307.712874 84.441 -155.5529
1317.189101 84.470 -155.5842
1326.733996 84.499 -155.6133
1336.348058 84.527 -155.6433
1346.031787 84.555 -155.6738
1355.785688 84.583 -155.7015
1365.610270 84.610 -155.7265
1375.506045 84.637 -155.7496
1385.473529 84.663 -155.7707
1395.513241 84.688 -155.7905
1405.625705 84.713 -155.8070
1415.811448 84.738 -155.8190
1426.071002 84.763 -155.8284
1436.404900 84.787 -155.8364
1446.813682 84.811 -155.8447
1457.297890 84.834 -155.8528
1467.858072 84.857 -155.8580
1478.494776 84.880 -155.8591
1489.208559 84.904 -155.8567
1499.999978 84.928 -155.8503
1510.869596 84.952 -155.8405
1521.817980 84.976 -155.8279
1532.845701 85.000 -155.8131
1543.953332 85.024 -155.7967
1555.141455 85.048 -155.7791
1566.410651 85.072 -155.7603
1577.761508 85.097 -155.7410
1589.194618 85.121 -155.7212
1600.710578 85.146 -155.7000
1612.309986 85.171 -155.6774
1623.993449 85.196 -155.6536
1635.761575 85.221 -155.6260
1647.614978 85.247 -155.5925
1659.554275 85.272 -155.5553
1671.580089 85.299 -155.5165
1683.693048 85.326 -155.4775
1695.893782 85.354 -155.4389
1708.182927 85.383 -155.3987
1720.561125 85.412 -155.3555
1733.029020 85.442 -155.3103
1745.587263 85.472 -155.2652
1758.236508 85.503 -155.2216
1770.977414 85.536 -155.1796
1783.810646 85.569 -155.1376
1796.736874 85.603 -155.0962
1809.756770 85.638 -155.0564
1822.871013 85.672 -155.0160
1836.080288 85.707 -154.9751
1849.385283 85.742 -154.9350
1862.786691 85.778 -154.8954
1876.285211 85.816 -154.8585
1889.881547 85.855 -154.8254
1903.576408 85.895 -154.7938
1917.370507 85.936 -154.7642
1931.264564 85.978 -154.7368
1945.259304 86.020 -154.7109
1959.355454 86.063 -154.6877
1973.553752 86.106 -154.6683
1987.854936 86.151 -154.6544
2002.259752 86.196 -154.6474
2016.768952 86.242 -154.6452
2031.383291 86.288 -154.6460
2046.103531 86.336 -154.6507
2060.930441 86.385 -154.6582
2075.864793 86.435 -154.6695
2090.907365 86.485 -154.6885
2106.058941 86.537 -154.7166
2121.320313 86.589 -154.7525
2136.692274 86.642 -154.7968
2152.175627 86.696 -154.8497
2167.771179 86.751 -154.9100
2183.479742 86.807 -154.9757
2199.302137 86.863 -155.0462
2215.239187 86.919 -155.1236
2231.291723 86.976 -155.2107
2247.460582 87.033 -155.3081
2263.746608 87.091 -155.4149
2280.150649 87.149 -155.5314
2296.673561 87.208 -155.6592
2313.316204 87.268 -155.8002
2330.079447 87.329 -155.9540
2346.964163 87.389 -156.1178
2363.971233 87.450 -156.2891
2381.101543 87.511 -156.4686
2398.355986 87.572 -156.6577
2415.735463 87.634 -156.8577
2433.240878 87.696 -157.0689
2450.873144 87.756 -157.2909
2468.633181 87.816 -157.5238
2486.521915 87.877 -157.7688
2504.540278 87.937 -158.0245
2522.689209 87.998 -158.2904
2540.969655 88.059 -158.5676
2559.382568 88.120 -158.8538
2577.928909 88.181 -159.1461
2596.609645 88.242 -159.4435
2615.425749 88.303 -159.7451
2634.378202 88.366 -160.0510
2653.467992 88.430 -160.3617
2672.696115 88.498 -160.6801
2692.063573 88.568 -161.0136
2711.571376 88.641 -161.3696
2731.220539 88.718 -161.7552
2751.012089 88.798 -162.1809
2770.947057 88.880 -162.6582
2791.026482 88.963 -163.1964
2811.251410 89.045 -163.8003
2831.622897 89.123 -164.4687
2852.142003 89.195 -165.1953
2872.809800 89.261 -165.9728
2893.627364 89.319 -166.7894
2914.595781 89.369 -167.6328
2935.716143 89.412 -168.4941
2956.989553 89.447 -169.3650
2978.417118 89.475 -170.2409
2999.999956 89.496 -171.1220
3021.739192 89.510 -172.0066
3043.635960 89.519 -172.8940
3065.691401 89.522 -173.7833
3087.906665 89.520 -174.6700
3110.282909 89.512 -175.5525
3132.821301 89.499 -176.4298
3155.523016 89.479 -177.2991
3178.389237 89.455 -178.1597
3201.421155 89.425 -179.0092
3224.619973 89.389 -179.8427
3247.986898 89.349 179.3407
3271.523150 89.304 178.5437
3295.229956 89.255 177.7689
3319.108550 89.202 177.0156
3343.160179 89.146 176.2845
3367.386096 89.087 175.5752
3391.787563 89.026 174.8852
3416.365854 88.962 174.2151
3441.122250 88.896 173.5643
3466.058040 88.828 172.9323
3491.174525 88.758 172.3209
3516.473015 88.685 171.7280
3541.954828 88.610 171.1519
3567.621293 88.532 170.5966
3593.473747 88.452 170.0622
3619.513539 88.369 169.5476
3645.742027 88.285 169.0565
3672.160576 88.198 168.5886
3698.770566 88.110 168.1444
3725.573382 88.020 167.7263
3752.570422 87.929 167.3341
3779.763094 87.836 166.9693
3807.152816 87.742 166.6343
3834.741015 87.647 166.3288
3862.529129 87.552 166.0532
3890.518607 87.456 165.8085
3918.710909 87.359 165.5931
3947.107503 87.263 165.4074
3975.709871 87.166 165.2516
4004.519504 87.071 165.1239
4033.537903 86.976 165.0248
4062.766581 86.881 164.9579
4092.207063 86.788 164.9225
4121.860882 86.697 164.9164
4151.729585 86.607 164.9387
4181.814729 86.519 164.9898
4212.117883 86.433 165.0688
4242.640625 86.350 165.1717
4273.384548 86.268 165.2950
4304.351254 86.189 165.4388
4335.542358 86.113 165.6013
4366.959485 86.040 165.7787
4398.604273 85.969 165.9682
4430.478373 85.900 166.1700
4462.583446 85.834 166.3864
4494.921165 85.771 166.6176
4527.493217 85.709 166.8596
4560.301299 85.649 167.1096
4593.347122 85.590 167.3692
4626.632409 85.531 167.6427
4660.158894 85.473 167.9332
4693.928327 85.415 168.2425
4727.942466 85.358 168.5732
4762.203086 85.302 168.9293
4796.711973 85.248 169.3159
4831.470925 85.197 169.7369
4866.481755 85.148 170.1920
4901.746288 85.102 170.6788
4937.266362 85.060 171.1957
4973.043830 85.023 171.7396
5009.080555 84.992 172.3074
5045.378418 84.967 172.8950
5081.939310 84.949 173.4984
5118.765137 84.937 174.1169
5155.857819 84.932 174.7491
5193.219290 84.932 175.3917
5230.851498 84.938 176.0422
5268.756404 84.950 176.6996
5306.935985 84.967 177.3634
5345.392231 84.991 178.0361
5384.127146 85.022 178.7171
5423.142751 85.062 179.4039
5462.441079 85.110 -179.9066
5502.024179 85.167 -179.2191
5541.894114 85.234 -178.5381
5582.052963 85.312 -177.8715
5622.502820 85.400 -177.2299
5663.245793 85.498 -176.6240
5704.284007 85.607 -176.0612
5745.619600 85.726 -175.5472
5787.254728 85.854 -175.0865
5829.191562 85.991 -174.6886
5871.432287 86.138 -174.3658
5913.979105 86.292 -174.1272
5956.834236 86.454 -173.9826
5999.999912 86.622 -173.9436
6043.478385 86.795 -174.0189
6087.271921 86.971 -174.2173
6131.382802 87.148 -174.5491
6175.813330 87.324 -175.0248
6220.565819 87.494 -175.6526
6265.642603 87.655 -176.4332
6311.046032 87.804 -177.3609
6356.778473 87.936 -178.4282
6402.842310 88.047 -179.6204
6449.239945 88.134 179.0847
6495.973796 88.195 177.7119
6543.046300 88.227 176.2940
6590.459911 88.230 174.8698
6638.217100 88.204 173.4744
6686.320358 88.150 172.1428
6734.772191 88.072 170.9086
6783.575127 87.973 169.7982
6832.731709 87.857 168.8331
6882.244499 87.730 168.0263
6932.116080 87.595 167.3824
6982.349051 87.458 166.9023
7032.946030 87.324 166.5786
7083.909656 87.197 166.3978
7135.242586 87.082 166.3450
7186.947495 86.981 166.3981
7239.027079 86.898 166.5300
7291.484053 86.836 166.7102
7344.321152 86.794 166.9024
7397.541131 86.772 167.0718
7451.146763 86.766 167.1918
7505.140844 86.773 167.2531
7559.526189 86.791 167.2766
7614.305632 86.823 167.2768
7669.482029 86.878 167.2098
7725.058258 86.954 166.9971
7781.037214 87.047 166.5767
7837.421817 87.148 165.9147
7894.215007 87.251 164.9972
7951.419743 87.346 163.8146
8009.039008 87.426 162.3600
8067.075806 87.481 160.6405
8125.533163 87.500 158.6776
8184.414126 87.473 156.5129
8243.721764 87.387 154.2209
8303.459170 87.235 151.9178
8363.629458 87.014 149.7783
8424.235765 86.745 148.0049
8485.281250 86.472 146.6629
8546.769096 86.238 145.4559
8608.702508 86.019 143.9308
8671.084715 85.739 142.1151
8733.918969 85.362 140.5078
8797.208547 84.923 139.5521
8860.956746 84.498 139.2708
8925.166891 84.136 139.2140
8989.842330 83.811 138.9615
9054.986433 83.466 138.5861
9120.602598 83.083 138.3705
9186.694244 82.678 138.4745
9253.264817 82.273 138.9138
9320.317788 81.882 139.6454
9387.856653 81.513 140.6117
9455.884932 81.170 141.7590
9524.406173 80.855 143.0474
9593.423946 80.568 144.4482
9662.941850 80.309 145.9402
9732.963510 80.079 147.5009
9803.492576 79.876 149.1007
9874.532725 79.700 150.7182
9946.087659 79.552 152.3447
10018.161110 79.431 153.9606
10090.756835 79.335 155.5387
10163.878619 79.265 157.0584
10237.530273 79.217 158.4977
10311.715638 79.192 159.8314
10386.438580 79.187 161.0359
10461.702996 79.199 162.0838
10537.512808 79.221 162.9483
10613.871970 79.249 163.6049
10690.784461 79.275 164.0286
10768.254293 79.289 164.2092
10846.285502 79.277 164.1641
10924.882158 79.222 163.9583
11004.048358 79.116 163.7190
11083.788228 78.957 163.6024
11164.105927 78.758 163.7374
11245.005640 78.538 164.2040
11326.491587 78.319 165.0283
11408.568014 78.123 166.1548
11491.239200 77.965 167.4379
11574.509457 77.845 168.6921
11658.383123 77.747 169.7921
11742.864573 77.650 170.7233
11827.958211 77.537 171.5526
11913.668472 77.405 172.3782
11999.999825 77.254 173.2822
12086.956770 77.094 174.3027
12174.543841 76.930 175.4466
12262.765605 76.766 176.7096
12351.626659 76.603 178.0854
12441.131638 76.445 179.5737
12531.285206 76.295 -178.8303
12622.092064 76.154 -177.1341
12713.556946 76.026 -175.3449
12805.684621 75.913 -173.4858
12898.479890 75.817 -171.5839
12991.947593 75.736 -169.6641
13086.092601 75.670 -167.7546
13180.919822 75.615 -165.8791
13276.434201 75.569 -164.0513
13372.640716 75.525 -162.2600
13469.544383 75.475 -160.4553
13567.150254 75.421 -158.5497
13665.463417 75.372 -156.4427
13764.488998 75.349 -154.0868
13864.232160 75.375 -151.5501
13964.698101 75.459 -148.9893
14065.892060 75.601 -146.5537
14167.819312 75.790 -144.3315
14270.485171 76.017 -142.3558
14373.894990 76.278 -140.6305
14478.054158 76.570 -139.1663
14582.968107 76.894 -137.9931
14688.642305 77.247 -137.1550
14795.082262 77.626 -136.7158
14902.293527 78.026 -136.7441
15010.281689 78.433 -137.3026
15119.052378 78.830 -138.4423
15228.611264 79.195 -140.1818
15338.964058 79.505 -142.4888
15450.116515 79.735 -145.2624
15562.074428 79.864 -148.3180
15674.843635 79.889 -151.3943
15788.430013 79.831 -154.2251
15902.839485 79.742 -156.7151
16018.078016 79.668 -159.1315
16134.151612 79.586 -161.9324
16251.066326 79.410 -165.1549
16368.828251 79.080 -168.2534
16487.443528 78.619 -170.6310
16606.918341 78.093 -172.0114
16727.258917 77.570 -172.4197
16848.471530 77.100 -172.0328
16970.562500 76.712 -171.0435
17093.538192 76.429 -169.5977
17217.405016 76.288 -167.8167
17342.169430 76.347 -165.9567
17467.837939 76.661 -164.7128
17594.417093 77.192 -165.2929
17721.913492 77.744 -168.7130
17850.333783 78.057 -174.8326
17979.684660 77.957 177.5454
18109.972866 77.400 169.8118
18241.205195 76.418 163.0961
18373.388487 75.088 158.2610
18506.529634 73.513 155.9182
18640.635577 71.829 156.3486
18775.713306 70.190 159.3205
18911.769865 68.730 163.9623
19048.812345 67.503 169.1009
19186.847892 66.458 173.9185
19325.883701 65.488 178.2751
19465.927021 64.510 -177.4846
19606.985152 63.503 -172.8820
19749.065449 62.518 -167.6467
19892.175318 61.695 -162.1678
20036.322221 61.231 -158.1124
