* Measurement data measured by REW V5.40 beta 105
* Source: Microphone (USB Multi-Channel Audio Device), MICROPHONE (Master Volume), L, volume: 0.500
* Format: 256k Log Swept Sine, 1 sweep at -6.0 dBFS with no timing reference
* Dated: Nov 20, 2025 10:19:07 PM
* REW Settings:
*  C-weighting compensation: Off
*  Target level: 75.0 dB
* Note: ; 
* Measurement: Truthear Nova R Green Damper
* Smoothing: 1/24 octave
* Frequency Step: 96 ppo
* Start Frequency: 20.0 Hz
*
* Freq(Hz) SPL(dB) Phase(degrees)
19.995176 89.684 -143.7326
20.140070 89.697 -144.1713
20.286013 89.709 -144.6089
20.433014 89.721 -145.0454
20.581080 89.732 -145.4810
20.730219 89.743 -145.9155
20.880438 89.754 -146.3491
21.031747 89.764 -146.7818
21.184151 89.774 -147.2136
21.337660 89.784 -147.6446
21.492282 89.793 -148.0747
21.648024 89.802 -148.5040
21.804894 89.811 -148.9325
21.962902 89.820 -149.3603
22.122054 89.828 -149.7873
22.282359 89.836 -150.2135
22.443827 89.843 -150.6390
22.606464 89.850 -151.0638
22.770280 89.857 -151.4878
22.935282 89.863 -151.9111
23.101481 89.869 -152.3335
23.268884 89.875 -152.7552
23.437500 89.880 -153.1761
23.607337 89.885 -153.5961
23.778406 89.889 -154.0152
23.950714 89.894 -154.4334
24.124271 89.897 -154.8507
24.299085 89.901 -155.2670
24.475166 89.904 -155.6823
24.652524 89.906 -156.0964
24.831166 89.908 -156.5094
25.011103 89.910 -156.9211
25.192344 89.912 -157.3316
25.374898 89.913 -157.7407
25.558775 89.913 -158.1484
25.743984 89.914 -158.5546
25.930536 89.914 -158.9593
26.118439 89.913 -159.3624
26.307704 89.913 -159.7639
26.498340 89.912 -160.1639
26.690358 89.910 -160.5623
26.883768 89.909 -160.9592
27.078578 89.907 -161.3546
27.274801 89.905 -161.7485
27.472445 89.903 -162.1412
27.671522 89.900 -162.5325
27.872041 89.897 -162.9227
28.074014 89.894 -163.3118
28.277450 89.891 -163.6999
28.482360 89.887 -164.0871
28.688755 89.883 -164.4734
28.896645 89.879 -164.8589
29.106042 89.875 -165.2436
29.316956 89.870 -165.6276
29.529399 89.865 -166.0108
29.743381 89.860 -166.3933
29.958914 89.854 -166.7751
30.176009 89.848 -167.1560
30.394677 89.842 -167.5361
30.614929 89.835 -167.9154
30.836777 89.828 -168.2937
31.060233 89.820 -168.6709
31.285309 89.813 -169.0471
31.512015 89.804 -169.4220
31.740364 89.796 -169.7956
31.970368 89.787 -170.1679
32.202038 89.777 -170.5386
32.435387 89.767 -170.9076
32.670428 89.757 -171.2750
32.907171 89.747 -171.6406
33.145630 89.736 -172.0043
33.385817 89.725 -172.3662
33.627744 89.713 -172.7262
33.871425 89.702 -173.0843
34.116871 89.689 -173.4405
34.364096 89.677 -173.7950
34.613112 89.665 -174.1477
34.863933 89.652 -174.4987
35.116572 89.639 -174.8481
35.371041 89.625 -175.1959
35.627354 89.612 -175.5421
35.885524 89.598 -175.8868
36.145566 89.583 -176.2299
36.407491 89.569 -176.5715
36.671315 89.554 -176.9113
36.937051 89.539 -177.2495
37.204712 89.524 -177.5860
37.474312 89.508 -177.9207
37.745867 89.493 -178.2537
38.019389 89.477 -178.5849
38.294893 89.460 -178.9143
38.572393 89.444 -179.2421
38.851905 89.427 -179.5684
39.133442 89.410 -179.8932
39.417019 89.393 179.7834
39.702651 89.376 179.4611
39.990353 89.359 179.1401
40.280139 89.341 178.8201
40.572026 89.323 178.5012
40.866027 89.304 178.1835
41.162159 89.286 177.8672
41.460437 89.267 177.5523
41.760877 89.247 177.2392
42.063493 89.227 176.9279
42.368303 89.207 176.6185
42.675321 89.187 176.3113
42.984564 89.166 176.0064
43.296048 89.145 175.7037
43.609789 89.124 175.4034
43.925803 89.102 175.1053
44.244108 89.081 174.8097
44.564719 89.059 174.5165
44.887653 89.037 174.2257
45.212928 89.015 173.9373
45.540559 88.992 173.6509
45.870565 88.970 173.3666
46.202962 88.947 173.0840
46.537767 88.925 172.8027
46.874999 88.902 172.5225
47.214675 88.880 172.2432
47.556812 88.857 171.9647
47.901428 88.834 171.6870
48.248542 88.810 171.4101
48.598170 88.787 171.1340
48.950333 88.763 170.8589
49.305047 88.739 170.5848
49.662332 88.715 170.3117
50.022206 88.690 170.0396
50.384687 88.665 169.7686
50.749795 88.640 169.4988
51.117549 88.614 169.2307
51.487968 88.588 168.9644
51.861071 88.562 168.7003
52.236878 88.535 168.4387
52.615408 88.508 168.1796
52.996681 88.481 167.9229
53.380716 88.454 167.6686
53.767535 88.427 167.4164
54.157157 88.399 167.1662
54.549602 88.371 166.9178
54.944891 88.343 166.6712
55.343044 88.315 166.4266
55.744083 88.286 166.1838
56.148027 88.258 165.9431
56.554899 88.229 165.7040
56.964719 88.200 165.4666
57.377509 88.171 165.2303
57.793290 88.142 164.9950
58.212084 88.112 164.7608
58.633913 88.082 164.5279
59.058798 88.052 164.2968
59.486763 88.021 164.0683
59.917828 87.990 163.8428
60.352018 87.958 163.6210
60.789353 87.926 163.4030
61.229858 87.894 163.1885
61.673555 87.862 162.9774
62.120467 87.830 162.7689
62.570617 87.798 162.5625
63.024030 87.766 162.3577
63.480728 87.734 162.1541
63.940735 87.701 161.9515
64.404076 87.669 161.7501
64.870775 87.636 161.5498
65.340855 87.603 161.3511
65.814342 87.569 161.1544
66.291260 87.535 160.9601
66.771634 87.501 160.7685
67.255488 87.467 160.5799
67.742849 87.432 160.3945
68.233742 87.398 160.2125
68.728192 87.363 160.0336
69.226225 87.328 159.8579
69.727866 87.293 159.6850
70.233143 87.259 159.5143
70.742082 87.224 159.3454
71.254708 87.189 159.1776
71.771049 87.155 159.0106
72.291131 87.120 158.8443
72.814983 87.085 158.6789
73.342630 87.049 158.5150
73.874101 87.014 158.3529
74.409423 86.978 158.1933
74.948625 86.942 158.0363
75.491733 86.905 157.8820
76.038777 86.869 157.7303
76.589786 86.833 157.5811
77.144787 86.796 157.4341
77.703810 86.759 157.2893
78.266884 86.722 157.1464
78.834038 86.685 157.0053
79.405302 86.648 156.8663
79.980705 86.611 156.7292
80.560278 86.574 156.5943
81.144051 86.536 156.4612
81.732055 86.499 156.3295
82.324319 86.461 156.1990
82.920875 86.423 156.0697
83.521754 86.385 155.9420
84.126987 86.346 155.8168
84.736605 86.307 155.6949
85.350642 86.267 155.5770
85.969128 86.228 155.4637
86.592096 86.188 155.3555
87.219578 86.148 155.2524
87.851607 86.109 155.1546
88.488216 86.069 155.0620
89.129438 86.030 154.9747
89.775306 85.991 154.8927
90.425855 85.953 154.8162
91.081118 85.915 154.7455
91.741129 85.878 154.6802
92.405924 85.843 154.6177
93.075535 85.810 154.5519
93.749999 85.778 154.4724
94.429350 85.746 154.3681
95.113624 85.712 154.2350
95.802856 85.673 154.0822
96.497083 85.627 153.9318
97.196341 85.575 153.8091
97.900666 85.520 153.7298
98.610094 85.466 153.6927
99.324664 85.414 153.6833
100.044411 85.365 153.6835
100.769374 85.319 153.6811
101.499591 85.274 153.6716
102.235098 85.229 153.6565
102.975936 85.184 153.6390
103.722142 85.139 153.6223
104.473756 85.093 153.6082
105.230815 85.048 153.5966
105.993361 85.003 153.5850
106.761433 84.957 153.5706
107.535070 84.912 153.5519
108.314314 84.865 153.5306
109.099204 84.816 153.5117
109.889782 84.766 153.5011
110.686088 84.714 153.5028
111.488165 84.662 153.5185
112.296055 84.609 153.5478
113.109798 84.556 153.5905
113.929438 84.502 153.6474
114.755018 84.448 153.7205
115.586580 84.395 153.8120
116.424168 84.341 153.9240
117.267826 84.289 154.0574
118.117597 84.238 154.2125
118.973525 84.190 154.3871
119.835657 84.146 154.5767
120.704035 84.104 154.7744
121.578706 84.066 154.9742
122.459716 84.031 155.1718
123.347109 83.998 155.3652
124.240933 83.966 155.5541
125.141234 83.934 155.7410
126.048059 83.903 155.9309
126.961456 83.872 156.1302
127.881471 83.841 156.3436
128.808153 83.812 156.5740
129.741550 83.786 156.8249
130.681710 83.764 157.0986
131.628684 83.747 157.3929
132.582520 83.740 157.6966
133.543267 83.742 157.9878
134.510977 83.754 158.2389
135.485699 83.773 158.4257
136.467484 83.797 158.5369
137.456384 83.821 158.5760
138.452449 83.844 158.5511
139.455733 83.864 158.4652
140.466286 83.879 158.3198
141.484163 83.885 158.1326
142.509416 83.882 157.9447
143.542098 83.871 157.7996
144.582263 83.860 157.7069
145.629965 83.853 157.6339
146.685260 83.850 157.5374
147.748202 83.845 157.3990
148.818846 83.835 157.2296
149.897249 83.817 157.0519
150.983466 83.792 156.8851
152.077555 83.760 156.7398
153.179572 83.724 156.6212
154.289574 83.684 156.5340
155.407620 83.643 156.4814
156.533767 83.602 156.4588
157.668076 83.564 156.4507
158.810603 83.529 156.4371
159.961411 83.493 156.4075
161.120557 83.455 156.3698
162.288103 83.414 156.3432
163.464109 83.373 156.3394
164.648638 83.332 156.3541
165.841750 83.292 156.3774
167.043507 83.251 156.4084
168.253973 83.211 156.4533
169.473211 83.171 156.5155
170.701284 83.131 156.5911
171.938256 83.094 156.6735
173.184191 83.057 156.7585
174.439155 83.020 156.8458
175.703213 82.984 156.9356
176.976431 82.947 157.0263
178.258875 82.910 157.1173
179.550613 82.873 157.2125
180.851710 82.835 157.3178
182.162236 82.797 157.4347
183.482259 82.761 157.5584
184.811847 82.726 157.6827
186.151070 82.691 157.8050
187.499997 82.657 157.9266
188.858700 82.624 158.0504
190.227248 82.591 158.1779
191.605713 82.558 158.3088
192.994167 82.526 158.4421
194.392682 82.495 158.5767
195.801331 82.465 158.7116
197.220189 82.434 158.8472
198.649327 82.403 158.9857
200.088822 82.373 159.1289
201.538748 82.343 159.2773
202.999181 82.313 159.4302
204.470197 82.285 159.5858
205.951872 82.256 159.7431
207.444284 82.228 159.9028
208.947511 82.201 160.0656
210.461631 82.174 160.2303
211.986723 82.147 160.3951
213.522866 82.122 160.5596
215.070141 82.096 160.7243
216.628627 82.070 160.8897
218.198408 82.045 161.0571
219.779563 82.020 161.2275
221.372177 81.995 161.4012
222.976331 81.971 161.5767
224.592109 81.948 161.7528
226.219596 81.925 161.9293
227.858877 81.902 162.1070
229.510036 81.879 162.2864
231.173160 81.856 162.4686
232.848336 81.834 162.6546
234.535651 81.813 162.8440
236.235193 81.792 163.0354
237.947051 81.771 163.2280
239.671313 81.750 163.4221
241.408071 81.730 163.6188
243.157413 81.709 163.8192
244.919432 81.689 164.0240
246.694219 81.668 164.2353
248.481867 81.648 164.4546
250.282469 81.629 164.6805
252.096119 81.611 164.9103
253.922911 81.593 165.1444
255.762941 81.576 165.3867
257.616305 81.560 165.6405
259.483099 81.546 165.9065
261.363421 81.534 166.1823
263.257368 81.525 166.4637
265.165039 81.518 166.7480
267.086534 81.515 167.0350
269.021953 81.515 167.3226
270.971397 81.519 167.6038
272.934968 81.528 167.8684
274.912767 81.540 168.1053
276.904898 81.554 168.3052
278.911465 81.568 168.4642
280.932573 81.580 168.5878
282.968326 81.590 168.6875
285.018831 81.597 168.7728
287.084195 81.601 168.8468
289.164526 81.602 168.9095
291.259931 81.601 168.9659
293.370520 81.596 169.0261
295.496404 81.588 169.0972
297.637693 81.579 169.1814
299.794498 81.568 169.2787
301.966933 81.558 169.3889
304.155110 81.547 169.5095
306.359143 81.537 169.6356
308.579148 81.527 169.7632
310.815239 81.518 169.8918
313.067535 81.509 170.0216
315.336151 81.500 170.1536
317.621207 81.492 170.2894
319.922821 81.484 170.4291
322.241114 81.476 170.5710
324.576206 81.469 170.7146
326.928219 81.462 170.8613
329.297275 81.455 171.0121
331.683499 81.448 171.1674
334.087014 81.442 171.3258
336.507947 81.436 171.4834
338.946422 81.431 171.6389
341.402567 81.426 171.7936
343.876511 81.421 171.9471
346.368382 81.416 172.0986
348.878310 81.411 172.2487
351.406426 81.406 172.3997
353.952862 81.402 172.5531
356.517750 81.398 172.7079
359.101225 81.395 172.8614
361.703421 81.392 173.0138
364.324473 81.389 173.1675
366.964518 81.387 173.3232
369.623694 81.385 173.4784
372.302140 81.383 173.6309
374.999995 81.381 173.7801
377.717399 81.378 173.9267
380.454495 81.375 174.0729
383.211425 81.373 174.2209
385.988333 81.372 174.3686
388.785364 81.371 174.5126
391.602663 81.371 174.6531
394.440377 81.371 174.7918
397.298655 81.371 174.9293
400.177644 81.371 175.0643
403.077497 81.371 175.1955
405.998362 81.370 175.3241
408.940394 81.368 175.4538
411.903744 81.367 175.5866
414.888569 81.365 175.7227
417.895022 81.364 175.8618
420.923262 81.364 176.0016
423.973445 81.364 176.1391
427.045732 81.365 176.2735
430.140281 81.366 176.4068
433.257255 81.366 176.5400
436.396816 81.367 176.6726
439.559127 81.366 176.8044
442.744354 81.366 176.9372
445.952662 81.366 177.0710
449.184218 81.367 177.2053
452.439192 81.367 177.3397
455.717753 81.368 177.4730
459.020072 81.369 177.6033
462.346321 81.369 177.7297
465.696673 81.370 177.8543
469.071303 81.370 177.9799
472.470387 81.371 178.1071
475.894102 81.372 178.2350
479.342627 81.373 178.3636
482.816141 81.373 178.4943
486.314826 81.374 178.6238
489.838864 81.375 178.7491
493.388438 81.375 178.8722
496.963734 81.375 178.9961
500.564938 81.375 179.1217
504.192238 81.376 179.2491
507.845823 81.377 179.3777
511.525883 81.378 179.5070
515.232610 81.379 179.6375
518.966198 81.380 179.7680
522.726841 81.380 179.8960
526.514735 81.380 -179.9781
530.330078 81.380 -179.8532
534.173068 81.379 -179.7288
538.043907 81.379 -179.6015
541.942795 81.379 -179.4704
545.869936 81.380 -179.3382
549.825534 81.382 -179.2065
553.809797 81.384 -179.0759
557.822931 81.385 -178.9472
561.865146 81.385 -178.8188
565.936652 81.385 -178.6890
570.037662 81.384 -178.5580
574.168390 81.384 -178.4253
578.329051 81.385 -178.2911
582.519862 81.386 -178.1562
586.741041 81.388 -178.0197
590.992808 81.389 -177.8809
595.275386 81.391 -177.7412
599.588997 81.392 -177.6013
603.933866 81.392 -177.4617
608.310219 81.392 -177.3229
612.718286 81.392 -177.1836
617.158295 81.393 -177.0413
621.630479 81.394 -176.8969
626.135069 81.395 -176.7525
630.672302 81.397 -176.6081
635.242414 81.399 -176.4635
639.845642 81.401 -176.3167
644.482227 81.403 -176.1649
649.152411 81.405 -176.0085
653.856437 81.407 -175.8515
658.594551 81.409 -175.6949
663.366998 81.411 -175.5374
668.174029 81.413 -175.3787
673.015893 81.415 -175.2179
677.892844 81.417 -175.0562
682.805135 81.420 -174.8947
687.753022 81.422 -174.7333
692.736764 81.425 -174.5687
697.756620 81.428 -174.4005
702.812853 81.432 -174.2309
707.905724 81.436 -174.0609
713.035501 81.441 -173.8879
718.202450 81.446 -173.7092
723.406841 81.451 -173.5244
728.648945 81.456 -173.3378
733.929036 81.462 -173.1524
739.247388 81.467 -172.9657
744.604279 81.473 -172.7762
749.999989 81.479 -172.5851
755.434798 81.486 -172.3939
760.908990 81.493 -172.2042
766.422850 81.502 -172.0150
771.976666 81.510 -171.8237
777.570727 81.519 -171.6272
783.205325 81.529 -171.4262
788.880754 81.539 -171.2236
794.597309 81.550 -171.0210
800.355289 81.562 -170.8197
806.154993 81.574 -170.6212
811.996725 81.586 -170.4268
817.880788 81.599 -170.2326
823.807489 81.612 -170.0340
829.777138 81.627 -169.8316
835.790045 81.642 -169.6276
841.846524 81.658 -169.4212
847.946891 81.675 -169.2135
854.091464 81.693 -169.0077
860.280562 81.712 -168.8048
866.514510 81.731 -168.6010
872.793631 81.751 -168.3934
879.118254 81.773 -168.1825
885.488707 81.795 -167.9724
891.905323 81.819 -167.7668
898.368437 81.843 -167.5673
904.878385 81.868 -167.3753
911.435507 81.893 -167.1890
918.040144 81.918 -167.0036
924.692641 81.944 -166.8181
931.393345 81.972 -166.6341
938.142606 82.000 -166.4528
944.940774 82.031 -166.2759
951.788204 82.062 -166.1059
958.685254 82.093 -165.9418
965.632282 82.126 -165.7823
972.629652 82.159 -165.6274
979.677727 82.193 -165.4761
986.776876 82.227 -165.3281
993.927468 82.262 -165.1858
1001.129876 82.297 -165.0519
1008.384476 82.332 -164.9292
1015.691645 82.369 -164.8161
1023.051766 82.405 -164.7111
1030.465221 82.443 -164.6141
1037.932396 82.481 -164.5261
1045.453682 82.518 -164.4446
1053.029471 82.556 -164.3688
1060.660156 82.594 -164.3025
1068.346137 82.632 -164.2432
1076.087813 82.670 -164.1864
1083.885589 82.708 -164.1333
1091.739871 82.745 -164.0879
1099.651068 82.782 -164.0547
1107.619593 82.819 -164.0328
1115.645861 82.855 -164.0175
1123.730291 82.890 -164.0054
1131.873304 82.925 -163.9963
1140.075325 82.959 -163.9917
1148.336780 82.994 -163.9959
1156.658102 83.028 -164.0128
1165.039724 83.062 -164.0400
1173.482082 83.095 -164.0728
1181.985617 83.126 -164.1089
1190.550772 83.156 -164.1473
1199.177993 83.186 -164.1888
1207.867731 83.215 -164.2345
1216.620439 83.242 -164.2848
1225.436572 83.269 -164.3398
1234.316591 83.295 -164.3990
1243.260957 83.320 -164.4600
1252.270139 83.345 -164.5199
1261.344604 83.369 -164.5784
1270.484827 83.392 -164.6356
1279.691284 83.415 -164.6936
1288.964455 83.436 -164.7564
1298.304823 83.457 -164.8228
1307.712874 83.477 -164.8886
1317.189101 83.495 -164.9507
1326.733996 83.513 -165.0089
1336.348058 83.530 -165.0661
1346.031787 83.546 -165.1238
1355.785688 83.562 -165.1803
1365.610270 83.578 -165.2348
1375.506045 83.593 -165.2861
1385.473529 83.608 -165.3346
1395.513241 83.622 -165.3832
1405.625705 83.634 -165.4305
1415.811448 83.645 -165.4736
1426.071002 83.657 -165.5139
1436.404900 83.669 -165.5535
1446.813682 83.681 -165.5907
1457.297890 83.692 -165.6222
1467.858072 83.704 -165.6482
1478.494776 83.714 -165.6707
1489.208559 83.724 -165.6906
1499.999978 83.734 -165.7066
1510.869596 83.743 -165.7182
1521.817980 83.754 -165.7281
1532.845701 83.764 -165.7378
1543.953332 83.775 -165.7466
1555.141455 83.786 -165.7537
1566.410651 83.796 -165.7587
1577.761508 83.807 -165.7600
1589.194618 83.817 -165.7586
1600.710578 83.828 -165.7552
1612.309986 83.838 -165.7481
1623.993449 83.848 -165.7374
1635.761575 83.859 -165.7243
1647.614978 83.870 -165.7085
1659.554275 83.881 -165.6895
1671.580089 83.892 -165.6671
1683.693048 83.904 -165.6417
1695.893782 83.916 -165.6136
1708.182927 83.927 -165.5832
1720.561125 83.939 -165.5487
1733.029020 83.952 -165.5108
1745.587263 83.965 -165.4715
1758.236508 83.979 -165.4316
1770.977414 83.993 -165.3914
1783.810646 84.008 -165.3497
1796.736874 84.023 -165.3055
1809.756770 84.039 -165.2625
1822.871013 84.056 -165.2209
1836.080288 84.074 -165.1768
1849.385283 84.091 -165.1302
1862.786691 84.109 -165.0813
1876.285211 84.128 -165.0298
1889.881547 84.147 -164.9769
1903.576408 84.168 -164.9219
1917.370507 84.189 -164.8661
1931.264564 84.212 -164.8131
1945.259304 84.235 -164.7615
1959.355454 84.258 -164.7106
1973.553752 84.282 -164.6632
1987.854936 84.306 -164.6188
2002.259752 84.331 -164.5743
2016.768952 84.356 -164.5283
2031.383291 84.382 -164.4830
2046.103531 84.410 -164.4411
2060.930441 84.439 -164.4018
2075.864793 84.469 -164.3622
2090.907365 84.500 -164.3241
2106.058941 84.531 -164.2915
2121.320313 84.563 -164.2646
2136.692274 84.596 -164.2421
2152.175627 84.628 -164.2220
2167.771179 84.662 -164.2038
2183.479742 84.696 -164.1896
2199.302137 84.731 -164.1796
2215.239187 84.767 -164.1725
2231.291723 84.805 -164.1681
2247.460582 84.842 -164.1647
2263.746608 84.880 -164.1631
2280.150649 84.918 -164.1667
2296.673561 84.957 -164.1781
2313.316204 84.997 -164.1981
2330.079447 85.038 -164.2274
2346.964163 85.079 -164.2634
2363.971233 85.120 -164.3008
2381.101543 85.162 -164.3386
2398.355986 85.204 -164.3790
2415.735463 85.246 -164.4216
2433.240878 85.289 -164.4657
2450.873144 85.333 -164.5121
2468.633181 85.378 -164.5595
2486.521915 85.423 -164.6063
2504.540278 85.470 -164.6513
2522.689209 85.518 -164.6921
2540.969655 85.568 -164.7256
2559.382568 85.621 -164.7503
2577.928909 85.677 -164.7675
2596.609645 85.738 -164.7817
2615.425749 85.804 -164.8000
2634.378202 85.877 -164.8304
2653.467992 85.957 -164.8850
2672.696115 86.044 -164.9780
2692.063573 86.137 -165.1230
2711.571376 86.234 -165.3331
2731.220539 86.334 -165.6152
2751.012089 86.433 -165.9692
2770.947057 86.529 -166.3928
2791.026482 86.621 -166.8771
2811.251410 86.709 -167.4108
2831.622897 86.790 -167.9859
2852.142003 86.866 -168.5929
2872.809800 86.937 -169.2249
2893.627364 87.002 -169.8802
2914.595781 87.063 -170.5556
2935.716143 87.119 -171.2502
2956.989553 87.171 -171.9645
2978.417118 87.219 -172.6960
2999.999956 87.262 -173.4427
3021.739192 87.302 -174.2042
3043.635960 87.336 -174.9821
3065.691401 87.366 -175.7808
3087.906665 87.392 -176.6000
3110.282909 87.412 -177.4346
3132.821301 87.428 -178.2826
3155.523016 87.438 -179.1438
3178.389237 87.442 179.9830
3201.421155 87.439 179.0986
3224.619973 87.430 178.2074
3247.986898 87.415 177.3144
3271.523150 87.393 176.4190
3295.229956 87.365 175.5215
3319.108550 87.331 174.6256
3343.160179 87.290 173.7349
3367.386096 87.243 172.8544
3391.787563 87.190 171.9863
3416.365854 87.131 171.1287
3441.122250 87.066 170.2841
3466.058040 86.993 169.4548
3491.174525 86.913 168.6409
3516.473015 86.827 167.8452
3541.954828 86.735 167.0717
3567.621293 86.636 166.3253
3593.473747 86.531 165.6128
3619.513539 86.420 164.9375
3645.742027 86.302 164.3011
3672.160576 86.179 163.7108
3698.770566 86.050 163.1723
3725.573382 85.918 162.6879
3752.570422 85.782 162.2588
3779.763094 85.643 161.8846
3807.152816 85.504 161.5654
3834.741015 85.362 161.3017
3862.529129 85.221 161.0918
3890.518607 85.078 160.9350
3918.710909 84.935 160.8322
3947.107503 84.793 160.7844
3975.709871 84.651 160.7907
4004.519504 84.511 160.8476
4033.537903 84.373 160.9544
4062.766581 84.237 161.1143
4092.207063 84.103 161.3278
4121.860882 83.974 161.5923
4151.729585 83.849 161.9067
4181.814729 83.727 162.2688
4212.117883 83.611 162.6752
4242.640625 83.499 163.1227
4273.384548 83.394 163.6076
4304.351254 83.294 164.1245
4335.542358 83.200 164.6668
4366.959485 83.111 165.2283
4398.604273 83.027 165.8072
4430.478373 82.948 166.4023
4462.583446 82.874 167.0112
4494.921165 82.804 167.6345
4527.493217 82.736 168.2774
4560.301299 82.672 168.9432
4593.347122 82.609 169.6342
4626.632409 82.550 170.3545
4660.158894 82.495 171.1088
4693.928327 82.445 171.9036
4727.942466 82.400 172.7410
4762.203086 82.364 173.6149
4796.711973 82.335 174.5207
4831.470925 82.314 175.4554
4866.481755 82.303 176.4134
4901.746288 82.299 177.3869
4937.266362 82.305 178.3714
4973.043830 82.320 179.3637
5009.080555 82.346 -179.6402
5045.378418 82.381 -178.6444
5081.939310 82.426 -177.6532
5118.765137 82.480 -176.6716
5155.857819 82.543 -175.7001
5193.219290 82.615 -174.7426
5230.851498 82.696 -173.8028
5268.756404 82.786 -172.8802
5306.935985 82.885 -171.9774
5345.392231 82.992 -171.0997
5384.127146 83.109 -170.2478
5423.142751 83.234 -169.4220
5462.441079 83.369 -168.6243
5502.024179 83.515 -167.8579
5541.894114 83.670 -167.1310
5582.052963 83.837 -166.4516
5622.502820 84.014 -165.8243
5663.245793 84.202 -165.2569
5704.284007 84.401 -164.7577
5745.619600 84.611 -164.3392
5787.254728 84.830 -164.0170
5829.191562 85.058 -163.8034
5871.432287 85.295 -163.7099
5913.979105 85.539 -163.7484
5956.834236 85.788 -163.9285
5999.999912 86.039 -164.2600
6043.478385 86.291 -164.7563
6087.271921 86.541 -165.4278
6131.382802 86.784 -166.2821
6175.813330 87.017 -167.3231
6220.565819 87.235 -168.5469
6265.642603 87.434 -169.9475
6311.046032 87.609 -171.5146
6356.778473 87.755 -173.2240
6402.842310 87.868 -175.0432
6449.239945 87.946 -176.9353
6495.973796 87.986 -178.8559
6543.046300 87.989 179.2397
6590.459911 87.957 177.3948
6638.217100 87.892 175.6504
6686.320358 87.799 174.0382
6734.772191 87.684 172.5816
6783.575127 87.551 171.2969
6832.731709 87.405 170.1916
6882.244499 87.252 169.2683
6932.116080 87.096 168.5233
6982.349051 86.942 167.9464
7032.946030 86.794 167.5291
7083.909656 86.656 167.2555
7135.242586 86.531 167.1014
7186.947495 86.423 167.0433
7239.027079 86.333 167.0550
7291.484053 86.264 167.1060
7344.321152 86.214 167.1649
7397.541131 86.184 167.1970
7451.146763 86.171 167.1698
7505.140844 86.169 167.0691
7559.526189 86.177 166.9042
7614.305632 86.197 166.6886
7669.482029 86.233 166.3948
7725.058258 86.284 165.9579
7781.037214 86.346 165.3252
7837.421817 86.410 164.4728
7894.215007 86.469 163.3911
7951.419743 86.515 162.0788
8009.039008 86.540 160.5417
8067.075806 86.536 158.7920
8125.533163 86.494 156.8585
8184.414126 86.406 154.7878
8243.721764 86.263 152.6474
8303.459170 86.057 150.5435
8363.629458 85.786 148.6346
8424.235765 85.467 147.1179
8485.281250 85.139 146.1043
8546.769096 84.853 145.3699
8608.702508 84.601 144.4438
8671.084715 84.316 143.2324
8733.918969 83.953 142.1411
8797.208547 83.534 141.6131
8860.956746 83.127 141.7523
8925.166891 82.788 142.1673
8989.842330 82.500 142.3878
9054.986433 82.206 142.4064
9120.602598 81.883 142.4785
9186.694244 81.537 142.7841
9253.264817 81.190 143.3721
9320.317788 80.854 144.2114
9387.856653 80.540 145.2490
9455.884932 80.251 146.4407
9524.406173 79.988 147.7505
9593.423946 79.751 149.1542
9662.941850 79.540 150.6301
9732.963510 79.356 152.1491
9803.492576 79.198 153.6873
9874.532725 79.066 155.2247
9946.087659 78.959 156.7417
10018.161110 78.877 158.2203
10090.756835 78.818 159.6407
10163.878619 78.781 160.9817
10237.530273 78.764 162.2278
10311.715638 78.765 163.3570
10386.438580 78.779 164.3446
10461.702996 78.803 165.1727
10537.512808 78.832 165.8241
10613.871970 78.861 166.2814
10690.784461 78.880 166.5375
10768.254293 78.882 166.5978
10846.285502 78.853 166.4958
10924.882158 78.782 166.3112
11004.048358 78.663 166.1673
11083.788228 78.501 166.2044
11164.105927 78.311 166.5259
11245.005640 78.112 167.1647
11326.491587 77.925 168.0998
11408.568014 77.765 169.2584
11491.239200 77.640 170.5125
11574.509457 77.548 171.7209
11658.383123 77.475 172.7937
11742.864573 77.403 173.7173
11827.958211 77.320 174.5480
11913.668472 77.221 175.3677
11999.999825 77.108 176.2406
12086.956770 76.984 177.2054
12174.543841 76.857 178.2702
12262.765605 76.730 179.4239
12351.626659 76.606 -179.3411
12441.131638 76.485 -178.0305
12531.285206 76.369 -176.6493
12622.092064 76.261 -175.1966
12713.556946 76.163 -173.6735
12805.684621 76.076 -172.0919
12898.479890 76.001 -170.4678
12991.947593 75.939 -168.8220
13086.092601 75.889 -167.1840
13180.919822 75.848 -165.5805
13276.434201 75.812 -164.0294
13372.640716 75.776 -162.5244
13469.544383 75.733 -161.0088
13567.150254 75.685 -159.3910
13665.463417 75.640 -157.5800
13764.488998 75.618 -155.5303
13864.232160 75.644 -153.3031
13964.698101 75.727 -151.0560
14065.892060 75.867 -148.9522
14167.819312 76.055 -147.0927
14270.485171 76.280 -145.5086
14373.894990 76.534 -144.2109
14478.054158 76.811 -143.2207
14582.968107 77.110 -142.5638
14688.642305 77.424 -142.2754
14795.082262 77.746 -142.3976
14902.293527 78.068 -142.9662
15010.281689 78.375 -144.0092
15119.052378 78.650 -145.5296
15228.611264 78.875 -147.4812
15338.964058 79.031 -149.7682
15450.116515 79.105 -152.2473
15562.074428 79.089 -154.7193
15674.843635 78.995 -156.9355
15788.430013 78.862 -158.6762
15902.839485 78.753 -159.9566
16018.078016 78.716 -161.2224
16134.151612 78.715 -163.0769
16251.066326 78.644 -165.5785
16368.828251 78.439 -168.1442
16487.443528 78.121 -170.1662
16606.918341 77.756 -171.3978
16727.258917 77.409 -171.9090
16848.471530 77.124 -171.9122
16970.562500 76.924 -171.6451
17093.538192 76.821 -171.3235
17217.405016 76.827 -171.1556
17342.169430 76.966 -171.4364
17467.837939 77.247 -172.7080
17594.417093 77.611 -175.7611
17721.913492 77.882 178.8525
17850.333783 77.839 171.5320
17979.684660 77.345 163.5887
18109.972866 76.394 156.4436
18241.205195 75.067 151.1110
18373.388487 73.485 148.1627
18506.529634 71.776 147.8019
18640.635577 70.066 149.8836
18775.713306 68.467 153.8834
18911.769865 67.049 158.9760
19048.812345 65.817 164.3727
19186.847892 64.724 169.6678
19325.883701 63.700 174.8836
19465.927021 62.695 -179.7229
19606.985152 61.704 -173.8768
19749.065449 60.779 -167.5520
19892.175318 60.033 -161.3076
20036.322221 59.619 -156.8611
