* Measurement data measured by REW V5.40 beta 105
* Source: Trace Arithmetic result A * B conjugate
* Format: Trace Arithmetic result A * B conjugate
* Dated: Dec 2, 2025 4:12:42 PM
* REW Settings:
*  C-weighting compensation: Off
*  Target level: 75.0 dB
* Note: Trace Arithmetic A times Bconj A = 711 corrction B = ? JM-1 - 10dB Tilt Target [1]
* Measurement: A times Bconj
* Smoothing: 1/6 octave
* Frequency Step: 96 ppo
* Start Frequency: 20.0 Hz
*
* Freq(Hz) SPL(dB)
20.000000 156.186
20.144928 156.180
20.290907 156.173
20.437943 156.163
20.586045 156.152
20.735220 156.139
20.885476 156.125
21.036820 156.110
21.189262 156.094
21.342808 156.077
21.497467 156.060
21.653246 156.042
21.810155 156.024
21.968200 156.006
22.127391 155.987
22.287735 155.969
22.449241 155.950
22.611917 155.932
22.775773 155.914
22.940815 155.895
23.107054 155.877
23.274497 155.859
23.443154 155.842
23.613033 155.824
23.784142 155.806
23.956492 155.789
24.130091 155.772
24.304947 155.755
24.481071 155.738
24.658471 155.721
24.837156 155.704
25.017137 155.688
25.198421 155.671
25.381019 155.655
25.564940 155.639
25.750195 155.622
25.936791 155.606
26.124740 155.590
26.314050 155.574
26.504733 155.558
26.696797 155.542
26.890253 155.527
27.085111 155.511
27.281381 155.496
27.479073 155.481
27.678198 155.466
27.878765 155.451
28.080786 155.437
28.284271 155.423
28.489231 155.409
28.695675 155.395
28.903616 155.382
29.113064 155.368
29.324029 155.355
29.536523 155.343
29.750557 155.330
29.966142 155.318
30.183289 155.306
30.402009 155.294
30.622315 155.282
30.844217 155.270
31.067726 155.258
31.292856 155.247
31.519617 155.236
31.748021 155.224
31.978080 155.213
32.209807 155.202
32.443212 155.191
32.678309 155.180
32.915110 155.170
33.153626 155.159
33.393871 155.148
33.635857 155.137
33.879596 155.126
34.125101 155.116
34.372386 155.105
34.621462 155.094
34.872344 155.083
35.125043 155.073
35.379574 155.062
35.635949 155.051
35.894182 155.041
36.154286 155.031
36.416274 155.020
36.680162 155.010
36.945961 155.000
37.213687 154.990
37.483353 154.980
37.754973 154.970
38.028561 154.961
38.304131 154.951
38.581699 154.942
38.861278 154.932
39.142882 154.923
39.426528 154.913
39.712229 154.904
40.000000 154.895
40.289856 154.885
40.581813 154.876
40.875886 154.867
41.172089 154.858
41.470439 154.848
41.770951 154.839
42.073641 154.830
42.378524 154.820
42.685616 154.811
42.994934 154.801
43.306493 154.792
43.620309 154.782
43.936400 154.773
44.254781 154.764
44.575470 154.754
44.898482 154.745
45.223835 154.736
45.551545 154.726
45.881631 154.717
46.214108 154.708
46.548994 154.699
46.886308 154.690
47.226065 154.681
47.568285 154.672
47.912984 154.663
48.260181 154.653
48.609894 154.644
48.962142 154.635
49.316942 154.626
49.674312 154.616
50.034273 154.607
50.396842 154.597
50.762038 154.587
51.129881 154.578
51.500389 154.567
51.873582 154.557
52.249480 154.547
52.628101 154.536
53.009466 154.525
53.393594 154.514
53.780506 154.503
54.170222 154.492
54.562762 154.480
54.958146 154.469
55.356395 154.457
55.757531 154.445
56.161573 154.433
56.568542 154.421
56.978461 154.409
57.391351 154.397
57.807232 154.385
58.226127 154.373
58.648058 154.362
59.073046 154.350
59.501113 154.339
59.932283 154.328
60.366577 154.318
60.804018 154.307
61.244629 154.296
61.688433 154.286
62.135453 154.275
62.585712 154.265
63.039234 154.255
63.496042 154.244
63.956161 154.233
64.419613 154.223
64.886424 154.212
65.356618 154.201
65.830219 154.190
66.307252 154.179
66.787742 154.169
67.271713 154.158
67.759192 154.147
68.250203 154.136
68.744772 154.125
69.242925 154.114
69.744688 154.103
70.250086 154.092
70.759147 154.081
71.271897 154.070
71.788363 154.059
72.308571 154.048
72.832549 154.037
73.360323 154.026
73.891923 154.015
74.427374 154.004
74.966705 153.993
75.509945 153.982
76.057121 153.972
76.608262 153.961
77.163398 153.950
77.722555 153.939
78.285765 153.929
78.853056 153.918
79.424458 153.908
80.000000 153.898
80.579713 153.887
81.163627 153.877
81.751772 153.867
82.344179 153.857
82.940879 153.847
83.541903 153.837
84.147282 153.827
84.757048 153.818
85.371232 153.808
85.989867 153.799
86.612985 153.790
87.240619 153.781
87.872800 153.772
88.509563 153.763
89.150939 153.755
89.796964 153.747
90.447670 153.738
91.103091 153.731
91.763261 153.723
92.428216 153.715
93.097989 153.708
93.772615 153.701
94.452130 153.694
95.136569 153.687
95.825968 153.680
96.520362 153.673
97.219789 153.666
97.924283 153.659
98.633883 153.652
99.348625 153.645
100.068546 153.638
100.793684 153.631
101.524077 153.623
102.259762 153.615
103.000778 153.608
103.747164 153.600
104.498959 153.592
105.256202 153.584
106.018931 153.576
106.787188 153.568
107.561012 153.561
108.340444 153.553
109.125523 153.545
109.916292 153.538
110.712791 153.530
111.515061 153.523
112.323145 153.515
113.137085 153.508
113.956923 153.501
114.782702 153.494
115.614465 153.487
116.452255 153.479
117.296116 153.472
118.146092 153.465
119.002227 153.457
119.864566 153.450
120.733154 153.442
121.608036 153.434
122.489258 153.425
123.376866 153.416
124.270906 153.406
125.171424 153.395
126.078468 153.384
126.992084 153.372
127.912321 153.358
128.839227 153.343
129.772849 153.327
130.713236 153.308
131.660438 153.288
132.614504 153.266
133.575483 153.242
134.543426 153.216
135.518384 153.188
136.500406 153.157
137.489544 153.124
138.485850 153.089
139.489375 153.052
140.500173 153.013
141.518295 152.973
142.543795 152.932
143.576726 152.889
144.617142 152.846
145.665098 152.803
146.720647 152.760
147.783845 152.718
148.854748 152.676
149.933411 152.636
151.019890 152.597
152.114242 152.559
153.216525 152.524
154.326795 152.490
155.445111 152.459
156.571530 152.429
157.706112 152.401
158.848915 152.375
160.000000 152.351
161.159426 152.328
162.327254 152.307
163.503544 152.287
164.688358 152.268
165.881758 152.250
167.083805 152.233
168.294563 152.217
169.514095 152.201
170.742464 152.186
171.979734 152.172
173.225970 152.158
174.481237 152.144
175.745600 152.130
177.019125 152.116
178.301879 152.103
179.593928 152.089
180.895339 152.076
182.206182 152.062
183.526523 152.049
184.856431 152.036
186.195977 152.022
187.545230 152.009
188.904260 151.996
190.273138 151.982
191.651936 151.969
193.040725 151.956
194.439578 151.942
195.848567 151.929
197.267766 151.916
198.697250 151.903
200.137092 151.890
201.587368 151.877
203.048153 151.864
204.519524 151.852
206.001557 151.840
207.494329 151.828
208.997918 151.817
210.512403 151.805
212.037863 151.795
213.574377 151.785
215.122025 151.775
216.680888 151.766
218.251047 151.758
219.832584 151.750
221.425581 151.743
223.030122 151.737
224.646290 151.732
226.274170 151.727
227.913846 151.723
229.565404 151.719
231.228929 151.716
232.904509 151.713
234.592231 151.711
236.292183 151.709
238.004454 151.708
239.729132 151.706
241.466308 151.705
243.216073 151.703
244.978517 151.701
246.753732 151.699
248.541811 151.696
250.342848 151.693
252.156935 151.689
253.984168 151.685
255.824642 151.680
257.678453 151.674
259.545697 151.667
261.426473 151.660
263.320877 151.651
265.229008 151.642
267.150967 151.632
269.086853 151.620
271.036767 151.607
273.000811 151.594
274.979088 151.579
276.971700 151.563
278.978751 151.546
281.000346 151.528
283.036590 151.509
285.087590 151.489
287.153452 151.468
289.234284 151.447
291.330195 151.426
293.441294 151.404
295.567690 151.382
297.709496 151.360
299.866821 151.338
302.039780 151.317
304.228485 151.296
306.433050 151.275
308.653590 151.256
310.890221 151.237
313.143060 151.219
315.412224 151.201
317.697831 151.185
320.000000 151.169
322.318852 151.154
324.654507 151.140
327.007088 151.127
329.376716 151.114
331.763515 151.101
334.167610 151.090
336.589127 151.079
339.028190 151.068
341.484928 151.057
343.959469 151.047
346.451941 151.037
348.962474 151.027
351.491200 151.017
354.038251 151.007
356.603758 150.997
359.187855 150.987
361.790679 150.977
364.412363 150.966
367.053045 150.956
369.712863 150.945
372.391955 150.933
375.090460 150.922
377.808521 150.910
380.546277 150.898
383.303872 150.886
386.081450 150.874
388.879155 150.861
391.697134 150.848
394.535533 150.835
397.394500 150.822
400.274184 150.808
403.174736 150.795
406.096306 150.781
409.039048 150.768
412.003113 150.754
414.988657 150.740
417.995836 150.726
421.024807 150.712
424.075726 150.698
427.148753 150.684
430.244049 150.670
433.361775 150.656
436.502093 150.641
439.665167 150.627
442.851162 150.612
446.060244 150.597
449.292581 150.582
452.548340 150.567
455.827692 150.551
459.130807 150.535
462.457858 150.519
465.809019 150.502
469.184463 150.485
472.584367 150.468
476.008908 150.450
479.458265 150.432
482.932617 150.414
486.432146 150.395
489.957033 150.376
493.507464 150.356
497.083623 150.337
500.685695 150.316
504.313870 150.296
507.968337 150.275
511.649285 150.254
515.356906 150.233
519.091395 150.211
522.852945 150.190
526.641753 150.168
530.458016 150.146
534.301934 150.124
538.173706 150.102
542.073534 150.079
546.001623 150.057
549.958175 150.035
553.943399 150.012
557.957501 149.990
562.000691 149.968
566.073180 149.945
570.175180 149.923
574.306904 149.900
578.468569 149.878
582.660390 149.856
586.882588 149.833
591.135381 149.811
595.418991 149.788
599.733643 149.766
604.079560 149.743
608.456970 149.720
612.866100 149.697
617.307180 149.674
621.780442 149.651
626.286120 149.628
630.824447 149.604
635.395661 149.581
640.000000 149.557
644.637704 149.533
649.309014 149.509
654.014175 149.485
658.753431 149.460
663.527030 149.436
668.335221 149.411
673.178253 149.386
678.056380 149.361
682.969856 149.337
687.918938 149.312
692.903882 149.287
697.924949 149.262
702.982401 149.237
708.076501 149.213
713.207515 149.188
718.375711 149.163
723.581357 149.139
728.824726 149.114
734.106091 149.090
739.425726 149.066
744.783910 149.041
750.180921 149.017
755.617041 148.993
761.092554 148.970
766.607744 148.946
772.162900 148.923
777.758310 148.899
783.394268 148.876
789.071066 148.853
794.789000 148.831
800.548368 148.808
806.349472 148.786
812.192613 148.765
818.078095 148.744
824.006226 148.723
829.977315 148.702
835.991673 148.683
842.049613 148.663
848.151452 148.645
854.297507 148.627
860.488099 148.610
866.723550 148.593
873.004186 148.578
879.330334 148.563
885.702324 148.549
892.120489 148.536
898.585161 148.524
905.096680 148.514
911.655384 148.504
918.261614 148.495
924.915716 148.488
931.618037 148.482
938.368925 148.477
945.168733 148.474
952.017816 148.472
958.916529 148.472
965.865234 148.473
972.864291 148.475
979.914067 148.480
987.014928 148.485
994.167245 148.493
1001.371391 148.502
1008.627741 148.512
1015.936673 148.524
1023.298569 148.538
1030.713812 148.553
1038.182790 148.570
1045.705890 148.588
1053.283506 148.607
1060.916032 148.628
1068.603867 148.649
1076.347412 148.672
1084.147069 148.696
1092.003245 148.720
1099.916351 148.745
1107.886798 148.770
1115.915003 148.797
1124.001383 148.823
1132.146360 148.850
1140.350359 148.878
1148.613808 148.905
1156.937137 148.933
1165.320781 148.961
1173.765175 148.990
1182.270762 149.019
1190.837983 149.048
1199.467286 149.078
1208.159120 149.107
1216.913939 149.138
1225.732199 149.168
1234.614360 149.199
1243.560885 149.231
1252.572239 149.262
1261.648894 149.295
1270.791322 149.327
1280.000000 149.361
1289.275408 149.394
1298.618029 149.428
1308.028350 149.463
1317.506863 149.498
1327.054061 149.533
1336.670442 149.569
1346.356507 149.605
1356.112761 149.642
1365.939713 149.679
1375.837875 149.716
1385.807763 149.754
1395.849898 149.792
1405.964802 149.831
1416.153002 149.870
1426.415031 149.909
1436.751422 149.949
1447.162715 149.989
1457.649452 150.029
1468.212181 150.070
1478.851452 150.111
1489.567819 150.152
1500.361842 150.194
1511.234082 150.236
1522.185107 150.279
1533.215488 150.322
1544.325799 150.365
1555.516621 150.408
1566.788535 150.452
1578.142131 150.496
1589.577999 150.540
1601.096737 150.585
1612.698944 150.630
1624.385225 150.675
1636.156190 150.720
1648.012452 150.766
1659.954630 150.813
1671.983345 150.860
1684.099226 150.907
1696.302903 150.955
1708.595013 151.004
1720.976197 151.054
1733.447100 151.104
1746.008372 151.156
1758.660669 151.208
1771.404649 151.262
1784.240977 151.317
1797.170323 151.374
1810.193360 151.432
1823.310767 151.491
1836.523229 151.552
1849.831433 151.614
1863.236074 151.678
1876.737851 151.743
1890.337467 151.810
1904.035631 151.879
1917.833058 151.949
1931.730467 152.021
1945.728583 152.094
1959.828134 152.169
1974.029857 152.246
1988.334491 152.324
2002.742782 152.404
2017.255482 152.486
2031.873347 152.570
2046.597138 152.655
2061.427625 152.743
2076.365579 152.832
2091.411780 152.924
2106.567012 153.018
2121.832065 153.113
2137.207735 153.210
2152.694823 153.310
2168.294137 153.411
2184.006490 153.513
2199.832702 153.617
2215.773596 153.722
2231.830005 153.828
2248.002765 153.935
2264.292720 154.043
2280.700718 154.151
2297.227616 154.259
2313.874274 154.367
2330.641561 154.474
2347.530351 154.581
2364.541523 154.687
2381.675966 154.792
2398.934572 154.895
2416.318240 154.997
2433.827878 155.097
2451.464399 155.195
2469.228720 155.291
2487.121769 155.384
2505.144479 155.475
2523.297789 155.563
2541.582644 155.648
2560.000000 155.731
2578.550815 155.810
2597.236057 155.886
2616.056701 155.958
2635.013726 156.027
2654.108121 156.093
2673.340883 156.155
2692.713013 156.214
2712.225522 156.269
2731.879426 156.321
2751.675750 156.369
2771.615527 156.414
2791.699796 156.456
2811.929603 156.494
2832.306004 156.531
2852.830061 156.564
2873.502844 156.596
2894.325430 156.625
2915.298905 156.653
2936.424363 156.679
2957.702904 156.704
2979.135638 156.728
3000.723683 156.750
3022.468164 156.772
3044.370214 156.792
3066.430976 156.812
3088.651599 156.831
3111.033242 156.848
3133.577071 156.864
3156.284262 156.879
3179.155999 156.891
3202.193474 156.902
3225.397888 156.911
3248.770450 156.917
3272.312380 156.920
3296.024905 156.921
3319.909260 156.918
3343.966691 156.912
3368.198452 156.903
3392.605806 156.890
3417.190027 156.874
3441.952394 156.854
3466.894200 156.831
3492.016745 156.804
3517.321337 156.775
3542.809298 156.742
3568.481954 156.706
3594.340646 156.667
3620.386720 156.626
3646.621534 156.583
3673.046457 156.537
3699.662866 156.489
3726.472148 156.438
3753.475701 156.386
3780.674934 156.332
3808.071263 156.276
3835.666117 156.218
3863.460935 156.158
3891.457165 156.096
3919.656268 156.033
3948.059713 155.968
3976.668981 155.902
4005.485564 155.834
4034.510963 155.764
4063.746693 155.694
4093.194277 155.622
4122.855250 155.549
4152.731158 155.475
4182.823560 155.400
4213.134024 155.325
4243.664130 155.250
4274.415470 155.175
4305.389646 155.099
4336.588274 155.024
4368.012981 154.949
4399.665403 154.875
4431.547192 154.801
4463.660010 154.728
4496.005531 154.655
4528.585440 154.583
4561.401437 154.512
4594.455232 154.442
4627.748549 154.372
4661.283122 154.304
4695.060701 154.235
4729.083046 154.168
4763.351932 154.100
4797.869143 154.033
4832.636481 153.966
4867.655757 153.899
4902.928797 153.832
4938.457440 153.765
4974.243539 153.698
5010.288958 153.631
5046.595577 153.564
5083.165289 153.496
5120.000000 153.430
5157.101631 153.363
5194.472115 153.298
5232.113401 153.233
5270.027452 153.169
5308.216243 153.106
5346.681766 153.045
5385.426026 152.986
5424.451043 152.929
5463.758851 152.873
5503.351500 152.820
5543.231054 152.769
5583.399591 152.720
5623.859206 152.673
5664.612008 152.629
5705.660122 152.586
5747.005687 152.546
5788.650860 152.507
5830.597810 152.470
5872.848725 152.434
5915.405808 152.400
5958.271277 152.368
6001.447367 152.336
6044.936328 152.305
6088.740429 152.275
6132.861952 152.246
6177.303198 152.218
6222.066483 152.190
6267.154142 152.163
6312.568524 152.136
6358.311998 152.110
6404.386948 152.085
6450.795775 152.062
6497.540901 152.039
6544.624761 152.017
6592.049809 151.998
6639.818520 151.980
6687.933382 151.965
6736.396904 151.953
6785.211613 151.943
6834.380053 151.936
6883.904789 151.932
6933.788400 151.932
6984.033489 151.935
7034.642675 151.940
7085.618596 151.949
7136.963909 151.959
7188.681291 151.971
7240.773439 151.985
7293.243069 151.998
7346.092914 152.011
7399.325732 152.022
7452.944296 152.030
7506.951403 152.035
7561.349867 152.035
7616.142525 152.029
7671.332234 152.015
7726.921869 151.994
7782.914330 151.964
7839.312536 151.924
7896.119426 151.873
7953.337962 151.811
8010.971128 151.737
8069.021927 151.651
8127.493386 151.553
8186.388553 151.443
8245.710500 151.322
8305.462317 151.189
8365.647121 151.047
8426.268048 150.896
8487.328260 150.737
8548.830939 150.572
8610.779292 150.403
8673.176549 150.232
8736.025961 150.060
8799.330806 149.890
8863.094385 149.722
8927.320020 149.559
8992.011061 149.400
9057.170880 149.246
9122.802874 149.097
9188.910464 148.952
9255.497097 148.810
9322.566244 148.670
9390.121402 148.532
9458.166093 148.394
9526.703863 148.255
9595.738287 148.114
9665.272962 147.970
9735.311514 147.824
9805.857594 147.676
9876.914881 147.524
9948.487077 147.370
10020.577916 147.214
10093.191154 147.057
10166.330578 146.898
10240.000000 146.738
10314.203261 146.579
10388.944230 146.420
10464.226802 146.262
10540.054903 146.106
10616.432486 145.952
10693.363532 145.799
10770.852052 145.649
10848.902086 145.501
10927.517703 145.355
11006.703001 145.212
11086.462108 145.071
11166.799182 144.934
11247.718413 144.800
11329.224017 144.670
11411.320244 144.544
11494.011375 144.423
11577.301719 144.308
11661.195620 144.200
11745.697450 144.097
11830.811616 144.002
11916.542554 143.913
12002.894734 143.832
12089.872657 143.758
12177.480858 143.691
12265.723904 143.631
12354.606395 143.579
12444.132966 143.534
12534.308283 143.497
12625.137048 143.467
12716.623996 143.446
12808.773895 143.433
12901.591551 143.427
12995.081802 143.429
13089.249521 143.439
13184.099619 143.456
13279.637040 143.479
13375.866764 143.507
13472.793808 143.540
13570.423226 143.575
13668.760107 143.613
13767.809577 143.651
13867.576801 143.688
13968.066979 143.722
14069.285350 143.753
14171.237191 143.778
14273.927818 143.798
14377.362583 143.809
14481.546879 143.812
14586.486137 143.805
14692.185828 143.788
14798.651463 143.760
14905.888592 143.720
15013.902806 143.668
15122.699734 143.604
15232.285051 143.529
15342.664467 143.444
15453.843739 143.348
15565.828661 143.244
15678.625072 143.134
15792.238852 143.019
15906.675925 142.903
16021.942256 142.788
16138.043854 142.677
16254.986772 142.573
16372.777107 142.480
16491.420999 142.400
16610.924634 142.336
16731.294241 142.290
16852.536096 142.262
16974.656520 142.255
17097.661878 142.266
17221.558584 142.295
17346.353097 142.340
17472.051922 142.399
17598.661613 142.468
17726.188769 142.546
17854.640040 142.628
17984.022122 142.712
18114.341760 142.795
18245.605748 142.873
18377.820928 142.943
18510.994194 143.004
18645.132489 143.052
18780.242805 143.086
18916.332186 143.105
19053.407727 143.108
19191.476573 143.097
19330.545924 143.075
19470.623028 143.045
19611.715189 143.014
19753.829761 142.988
19896.974155 142.973
20041.155832 142.973
